##TITLE=No Description
##DATA TYPE=INFRARED SPECTRUM
##XUNITS=1/CM
##YUNITS=%T
399.452061  	22.480545 
400.888939  	23.253288 
402.325817  	22.653313 
403.762695  	21.341670 
405.199573  	20.765779 
406.636451  	21.664490 
408.073328  	20.291248 
409.510206  	18.367600 
410.947084  	17.712495 
412.383962  	17.064646 
413.820840  	18.284550 
415.257718  	18.581603 
416.694596  	17.206578 
418.131474  	17.580883 
419.568352  	16.975297 
421.005230  	16.057611 
422.442108  	16.654934 
423.878986  	17.151385 
425.315863  	18.024622 
426.752741  	17.950951 
428.189619  	17.345136 
429.626497  	17.989384 
431.063375  	17.989940 
432.500253  	18.027947 
433.937131  	18.520434 
435.374009  	17.356094 
436.810887  	17.456430 
438.247765  	18.366149 
439.684643  	18.082350 
441.121521  	19.167031 
442.558398  	19.891097 
443.995276  	19.610353 
445.432154  	20.318960 
446.869032  	20.048455 
448.305910  	20.412015 
449.742788  	22.143675 
451.179666  	22.680845 
452.616544  	23.654437 
454.053422  	24.592779 
455.490300  	24.296829 
456.927178  	24.852190 
458.364056  	26.353973 
459.800933  	27.652696 
461.237811  	28.566207 
462.674689  	29.164560 
464.111567  	31.148406 
465.548445  	33.064614 
466.985323  	33.156383 
468.422201  	33.765797 
469.859079  	34.943490 
471.295957  	35.930178 
472.732835  	38.106917 
474.169713  	40.132286 
475.606591  	41.385946 
477.043469  	43.242577 
478.480346  	45.238827 
479.917224  	46.686082 
481.354102  	48.157777 
482.790980  	49.791201 
484.227858  	51.122589 
485.664736  	52.399475 
487.101614  	54.073526 
488.538492  	55.712997 
489.975370  	56.931212 
491.412248  	57.978267 
492.849126  	59.509481 
494.286004  	61.570097 
495.722881  	62.845266 
497.159759  	63.549724 
498.596637  	65.056630 
500.033515  	65.949395 
501.470393  	65.544801 
502.907271  	66.393807 
504.344149  	68.281505 
505.781027  	69.052930 
507.217905  	69.349972 
508.654783  	70.118962 
510.091661  	70.818180 
511.528539  	70.969500 
512.965416  	70.859930 
514.402294  	70.906390 
515.839172  	70.762843 
517.276050  	70.266139 
518.712928  	70.159611 
520.149806  	70.661914 
521.586684  	71.393389 
523.023562  	71.586047 
524.460440  	70.706908 
525.897318  	69.761762 
527.334196  	69.823419 
528.771074  	70.199080 
530.207951  	70.353104 
531.644829  	70.193226 
533.081707  	69.786003 
534.518585  	69.574477 
535.955463  	69.438958 
537.392341  	69.153643 
538.829219  	68.930897 
540.266097  	68.631917 
541.702975  	68.232808 
543.139853  	68.035297 
544.576731  	67.837645 
546.013609  	67.376478 
547.450486  	66.872059 
548.887364  	66.533828 
550.324242  	66.310330 
551.761120  	66.250230 
553.197998  	66.325136 
554.634876  	66.202993 
556.071754  	65.971444 
557.508632  	66.006324 
558.945510  	66.051146 
560.382388  	65.921850 
561.819266  	65.841226 
563.256144  	65.752449 
564.693021  	65.616938 
566.129899  	65.521452 
567.566777  	65.529015 
569.003655  	65.694156 
570.440533  	65.835134 
571.877411  	66.094095 
573.314289  	66.505677 
574.751167  	66.427079 
576.188045  	66.212190 
577.624923  	66.631965 
579.061801  	67.020349 
580.498679  	67.189108 
581.935556  	67.597236 
583.372434  	67.838647 
584.809312  	67.955173 
586.246190  	68.428293 
587.683068  	68.991277 
589.119946  	69.285011 
590.556824  	69.196399 
591.993702  	69.142959 
593.430580  	69.613206 
594.867458  	70.052497 
596.304336  	70.205193 
597.741214  	70.435391 
599.178091  	70.579027 
600.614969  	70.804260 
602.051847  	71.322275 
603.488725  	71.591404 
604.925603  	71.722419 
606.362481  	72.018675 
607.799359  	72.265102 
609.236237  	72.389656 
610.673115  	72.533950 
612.109993  	72.767281 
613.546871  	72.990818 
614.983749  	73.072511 
616.420626  	73.168903 
617.857504  	73.443194 
619.294382  	73.677381 
620.731260  	73.870744 
622.168138  	74.196312 
623.605016  	74.342548 
625.041894  	74.319387 
626.478772  	74.512142 
627.915650  	74.881535 
629.352528  	75.091100 
630.789406  	75.092164 
632.226284  	75.077098 
633.663161  	75.031620 
635.100039  	75.078735 
636.536917  	75.336478 
637.973795  	75.590260 
639.410673  	75.629337 
640.847551  	75.760879 
642.284429  	76.086684 
643.721307  	76.281336 
645.158185  	76.410366 
646.595063  	76.612404 
648.031941  	76.802251 
649.468819  	76.958928 
650.905696  	77.142091 
652.342574  	77.390659 
653.779452  	77.698317 
655.216330  	77.891256 
656.653208  	77.952252 
658.090086  	78.061919 
659.526964  	78.184552 
660.963842  	78.309487 
662.400720  	78.342999 
663.837598  	78.298466 
665.274476  	78.479945 
666.711354  	78.888062 
668.148231  	78.883899 
669.585109  	78.402724 
671.021987  	79.028870 
672.458865  	79.556419 
673.895743  	79.775902 
675.332621  	79.896403 
676.769499  	79.929215 
678.206377  	79.978936 
679.643255  	80.041192 
681.080133  	80.038064 
682.517011  	80.077378 
683.953889  	80.094028 
685.390766  	80.087989 
686.827644  	80.019598 
688.264522  	79.691398 
689.701400  	79.563570 
691.138278  	79.613206 
692.575156  	79.498113 
694.012034  	79.395320 
695.448912  	79.350524 
696.885790  	79.258774 
698.322668  	79.178042 
699.759546  	79.242040 
701.196424  	79.338115 
702.633301  	79.271842 
704.070179  	79.129549 
705.507057  	79.148198 
706.943935  	79.110254 
708.380813  	79.015253 
709.817691  	79.101669 
711.254569  	78.987924 
712.691447  	78.926532 
714.128325  	78.672401 
715.565203  	78.521620 
717.002081  	78.487061 
718.438959  	78.338954 
719.875837  	78.127171 
721.312714  	77.966443 
722.749592  	77.817722 
724.186470  	77.670156 
725.623348  	77.437298 
727.060226  	77.145500 
728.497104  	76.915413 
729.933982  	76.710115 
731.370860  	76.441967 
732.807738  	76.147657 
734.244616  	75.729032 
735.681494  	75.409753 
737.118372  	75.241318 
738.555249  	74.914626 
739.992127  	74.504083 
741.429005  	74.115942 
742.865883  	73.648040 
744.302761  	73.150358 
745.739639  	72.622396 
747.176517  	72.133095 
748.613395  	71.698717 
750.050273  	71.162228 
751.487151  	70.558739 
752.924029  	69.868530 
754.360907  	69.072355 
755.797784  	68.240038 
757.234662  	67.281845 
758.671540  	66.281809 
760.108418  	65.163028 
761.545296  	63.724251 
762.982174  	62.197526 
764.419052  	60.470221 
765.855930  	58.386660 
767.292808  	56.214726 
768.729686  	53.794441 
770.166564  	51.133886 
771.603442  	48.432665 
773.040319  	45.649279 
774.477197  	43.131680 
775.914075  	40.839684 
777.350953  	38.630841 
778.787831  	36.909550 
780.224709  	35.565366 
781.661587  	34.564101 
783.098465  	34.119969 
784.535343  	34.080024 
785.972221  	34.446658 
787.409099  	35.052406 
788.845977  	35.737327 
790.282854  	36.617305 
791.719732  	37.525693 
793.156610  	38.501700 
794.593488  	39.795721 
796.030366  	41.409517 
797.467244  	43.263166 
798.904122  	45.180732 
800.341000  	47.179842 
801.777878  	49.221675 
803.214756  	50.995614 
804.651634  	52.469611 
806.088512  	53.632920 
807.525389  	54.384104 
808.962267  	54.887685 
810.399145  	55.373113 
811.836023  	56.087537 
813.272901  	57.182640 
814.709779  	58.631989 
816.146657  	60.499437 
817.583535  	62.632224 
819.020413  	64.771855 
820.457291  	66.792409 
821.894169  	68.560770 
823.331047  	70.164766 
824.767924  	71.672520 
826.204802  	73.081354 
827.641680  	74.478687 
829.078558  	75.700338 
830.515436  	76.703137 
831.952314  	77.698978 
833.389192  	78.640506 
834.826070  	79.487012 
836.262948  	80.263551 
837.699826  	80.910428 
839.136704  	81.489598 
840.573582  	81.979839 
842.010459  	82.365635 
843.447337  	82.786122 
844.884215  	83.147876 
846.321093  	83.318094 
847.757971  	83.375779 
849.194849  	83.386798 
850.631727  	83.397654 
852.068605  	83.362149 
853.505483  	83.205222 
854.942361  	83.013437 
856.379239  	82.790042 
857.816117  	82.488993 
859.252994  	82.155874 
860.689872  	81.752210 
862.126750  	81.286131 
863.563628  	80.796364 
865.000506  	80.256241 
866.437384  	79.655193 
867.874262  	78.877800 
869.311140  	78.008540 
870.748018  	77.262478 
872.184896  	76.452895 
873.621774  	75.554396 
875.058652  	74.747435 
876.495529  	73.969421 
877.932407  	73.378842 
879.369285  	72.994101 
880.806163  	72.647664 
882.243041  	72.510001 
883.679919  	72.427419 
885.116797  	72.204610 
886.553675  	71.960821 
887.990553  	71.544031 
889.427431  	70.999855 
890.864309  	70.447817 
892.301187  	69.723908 
893.738064  	68.952413 
895.174942  	68.157259 
896.611820  	67.291600 
898.048698  	66.519330 
899.485576  	65.672930 
900.922454  	64.742797 
902.359332  	63.878674 
903.796210  	62.991335 
905.233088  	62.186168 
906.669966  	61.333982 
908.106844  	60.343288 
909.543722  	59.508182 
910.980599  	58.668664 
912.417477  	57.755775 
913.854355  	56.852303 
915.291233  	55.772487 
916.728111  	54.775944 
918.164989  	53.849909 
919.601867  	52.714452 
921.038745  	51.639972 
922.475623  	50.551235 
923.912501  	49.369193 
925.349379  	48.241485 
926.786257  	46.979442 
928.223134  	45.798257 
929.660012  	44.742480 
931.096890  	43.575508 
932.533768  	42.556632 
933.970646  	41.551333 
935.407524  	40.499940 
936.844402  	39.579985 
938.281280  	38.498783 
939.718158  	37.485863 
941.155036  	36.611286 
942.591914  	35.551870 
944.028792  	34.645468 
945.465670  	33.795944 
946.902547  	32.918332 
948.339425  	32.312677 
949.776303  	31.678017 
951.213181  	31.206422 
952.650059  	31.013351 
954.086937  	30.732130 
955.523815  	30.743732 
956.960693  	30.941165 
958.397571  	31.094790 
959.834449  	31.552361 
961.271327  	32.026137 
962.708205  	32.609530 
964.145082  	33.509957 
965.581960  	34.373243 
967.018838  	35.521113 
968.455716  	36.990362 
969.892594  	38.550352 
971.329472  	40.469983 
972.766350  	42.541142 
974.203228  	44.733783 
975.640106  	47.099121 
977.076984  	49.253203 
978.513862  	51.321521 
979.950740  	53.257369 
981.387617  	54.806847 
982.824495  	56.149018 
984.261373  	57.127807 
985.698251  	57.672487 
987.135129  	57.957537 
988.572007  	57.867216 
990.008885  	57.492981 
991.445763  	56.805901 
992.882641  	55.756651 
994.319519  	54.618288 
995.756397  	53.212539 
997.193275  	51.584964 
998.630152  	49.950568 
1000.067030  	47.973769 
1001.503908  	45.888054 
1002.940786  	43.833422 
1004.377664  	41.523185 
1005.814542  	39.281529 
1007.251420  	37.005644 
1008.688298  	34.605763 
1010.125176  	32.354888 
1011.562054  	29.935871 
1012.998932  	27.605701 
1014.435810  	25.502359 
1015.872687  	23.268672 
1017.309565  	21.327206 
1018.746443  	19.501347 
1020.183321  	17.685412 
1021.620199  	16.312905 
1023.057077  	14.880845 
1024.493955  	13.594360 
1025.930833  	12.653103 
1027.367711  	11.502018 
1028.804589  	10.663951 
1030.241467  	10.018735 
1031.678345  	9.234688 
1033.115222  	8.859115 
1034.552100  	8.408453 
1035.988978  	7.933684 
1037.425856  	7.810155 
1038.862734  	7.487043 
1040.299612  	7.362206 
1041.736490  	7.399972 
1043.173368  	7.231660 
1044.610246  	7.402594 
1046.047124  	7.478271 
1047.484002  	7.471199 
1048.920880  	7.801617 
1050.357757  	7.848506 
1051.794635  	8.016054 
1053.231513  	8.388746 
1054.668391  	8.472187 
1056.105269  	8.840769 
1057.542147  	9.178017 
1058.979025  	9.380010 
1060.415903  	9.920308 
1061.852781  	10.227094 
1063.289659  	10.598719 
1064.726537  	11.209099 
1066.163415  	11.550870 
1067.600292  	12.115251 
1069.037170  	12.713656 
1070.474048  	13.247140 
1071.910926  	14.146386 
1073.347804  	14.892857 
1074.784682  	15.771418 
1076.221560  	16.979568 
1077.658438  	18.048322 
1079.095316  	19.460154 
1080.532194  	20.963787 
1081.969072  	22.259726 
1083.405950  	23.751437 
1084.842827  	25.019925 
1086.279705  	26.223769 
1087.716583  	27.550351 
1089.153461  	28.524147 
1090.590339  	29.535814 
1092.027217  	30.508568 
1093.464095  	31.151924 
1094.900973  	31.859326 
1096.337851  	32.447749 
1097.774729  	33.140445 
1099.211607  	34.240624 
1100.648485  	35.417606 
1102.085362  	37.007437 
1103.522240  	38.893765 
1104.959118  	40.702867 
1106.395996  	42.729778 
1107.832874  	44.705693 
1109.269752  	46.536735 
1110.706630  	48.425205 
1112.143508  	50.070388 
1113.580386  	51.564759 
1115.017264  	52.963369 
1116.454142  	54.098751 
1117.891020  	55.179374 
1119.327897  	56.102964 
1120.764775  	56.790091 
1122.201653  	57.410003 
1123.638531  	57.862834 
1125.075409  	58.239462 
1126.512287  	58.571243 
1127.949165  	58.780374 
1129.386043  	59.028125 
1130.822921  	59.168618 
1132.259799  	59.222713 
1133.696677  	59.396072 
1135.133555  	59.459945 
1136.570432  	59.493535 
1138.007310  	59.621716 
1139.444188  	59.666094 
1140.881066  	59.721513 
1142.317944  	59.742298 
1143.754822  	59.708876 
1145.191700  	59.749218 
1146.628578  	59.683029 
1148.065456  	59.589703 
1149.502334  	59.564868 
1150.939212  	59.455458 
1152.376090  	59.354835 
1153.812967  	59.185888 
1155.249845  	58.947150 
1156.686723  	58.810406 
1158.123601  	58.595075 
1159.560479  	58.372978 
1160.997357  	58.213375 
1162.434235  	57.956392 
1163.871113  	57.830121 
1165.307991  	57.865343 
1166.744869  	58.073002 
1168.181747  	58.687387 
1169.618625  	59.559122 
1171.055502  	60.702126 
1172.492380  	62.050364 
1173.929258  	63.253757 
1175.366136  	64.385122 
1176.803014  	65.370253 
1178.239892  	66.062321 
1179.676770  	66.669483 
1181.113648  	67.150306 
1182.550526  	67.515021 
1183.987404  	67.863304 
1185.424282  	68.058275 
1186.861160  	68.252768 
1188.298038  	68.529347 
1189.734915  	68.745702 
1191.171793  	68.986939 
1192.608671  	69.210082 
1194.045549  	69.412205 
1195.482427  	69.670021 
1196.919305  	69.859838 
1198.356183  	70.085226 
1199.793061  	70.379848 
1201.229939  	70.603741 
1202.666817  	70.875335 
1204.103695  	71.171903 
1205.540573  	71.450904 
1206.977450  	71.796859 
1208.414328  	72.113866 
1209.851206  	72.432934 
1211.288084  	72.768370 
1212.724962  	73.086248 
1214.161840  	73.554314 
1215.598718  	74.058348 
1217.035596  	74.469262 
1218.472474  	74.920534 
1219.909352  	75.386178 
1221.346230  	75.916513 
1222.783108  	76.512062 
1224.219985  	77.009685 
1225.656863  	77.556727 
1227.093741  	78.231686 
1228.530619  	78.897960 
1229.967497  	79.564760 
1231.404375  	80.234526 
1232.841253  	80.944721 
1234.278131  	81.712681 
1235.715009  	82.437972 
1237.151887  	83.156909 
1238.588765  	83.898375 
1240.025643  	84.640626 
1241.462520  	85.413709 
1242.899398  	86.128703 
1244.336276  	86.805648 
1245.773154  	87.561865 
1247.210032  	88.279769 
1248.646910  	88.912145 
1250.083788  	89.518930 
1251.520666  	90.030902 
1252.957544  	90.489248 
1254.394422  	90.921638 
1255.831300  	91.265139 
1257.268178  	91.603383 
1258.705055  	91.856836 
1260.141933  	91.986027 
1261.578811  	92.278834 
1263.015689  	92.641157 
1264.452567  	92.804264 
1265.889445  	92.900779 
1267.326323  	93.015394 
1268.763201  	93.117830 
1270.200079  	93.205301 
1271.636957  	93.298546 
1273.073835  	93.542770 
1274.510713  	93.819998 
1275.947590  	93.926216 
1277.384468  	93.978048 
1278.821346  	93.969094 
1280.258224  	93.922931 
1281.695102  	94.003105 
1283.131980  	94.057960 
1284.568858  	94.000002 
1286.005736  	93.815504 
1287.442614  	93.434106 
1288.879492  	93.189611 
1290.316370  	93.161359 
1291.753248  	93.013570 
1293.190125  	92.815544 
1294.627003  	92.581198 
1296.063881  	92.279193 
1297.500759  	92.287713 
1298.937637  	92.590959 
1300.374515  	92.927477 
1301.811393  	93.271589 
1303.248271  	93.592556 
1304.685149  	93.924594 
1306.122027  	94.227128 
1307.558905  	94.466954 
1308.995783  	94.750708 
1310.432660  	95.029104 
1311.869538  	94.863606 
1313.306416  	94.671587 
1314.743294  	94.872214 
1316.180172  	95.081610 
1317.617050  	95.030052 
1319.053928  	95.024213 
1320.490806  	95.337079 
1321.927684  	95.724840 
1323.364562  	95.934775 
1324.801440  	96.033454 
1326.238318  	96.115347 
1327.675195  	96.187428 
1329.112073  	96.239853 
1330.548951  	96.212435 
1331.985829  	96.288392 
1333.422707  	96.393492 
1334.859585  	96.167846 
1336.296463  	95.611542 
1337.733341  	94.743892 
1339.170219  	93.733462 
1340.607097  	93.993476 
1342.043975  	95.616341 
1343.480853  	96.556927 
1344.917730  	96.492353 
1346.354608  	96.477225 
1347.791486  	96.505096 
1349.228364  	96.345740 
1350.665242  	96.375704 
1352.102120  	96.437793 
1353.538998  	96.251080 
1354.975876  	96.078911 
1356.412754  	95.987251 
1357.849632  	95.886485 
1359.286510  	95.681017 
1360.723388  	95.030878 
1362.160265  	93.755710 
1363.597143  	92.944724 
1365.034021  	93.520478 
1366.470899  	93.861959 
1367.907777  	93.533092 
1369.344655  	93.468505 
1370.781533  	94.013947 
1372.218411  	94.054434 
1373.655289  	93.553443 
1375.092167  	93.396334 
1376.529045  	93.767952 
1377.965923  	93.754605 
1379.402800  	93.484307 
1380.839678  	93.541227 
1382.276556  	93.476262 
1383.713434  	93.006423 
1385.150312  	92.249472 
1386.587190  	90.454108 
1388.024068  	88.655131 
1389.460946  	88.171724 
1390.897824  	87.804072 
1392.334702  	87.814389 
1393.771580  	88.033863 
1395.208458  	88.011503 
1396.645335  	89.018477 
1398.082213  	90.341570 
1399.519091  	91.373356 
1400.955969  	92.804932 
1402.392847  	93.947090 
1403.829725  	94.086036 
1405.266603  	94.027669 
1406.703481  	94.537547 
1408.140359  	95.062649 
1409.577237  	95.094270 
1411.014115  	94.805915 
1412.450993  	94.916351 
1413.887871  	95.337136 
1415.324748  	95.025289 
1416.761626  	94.232318 
1418.198504  	93.866974 
1419.635382  	94.009429 
1421.072260  	94.815105 
1422.509138  	95.211124 
1423.946016  	94.811178 
1425.382894  	94.683275 
1426.819772  	95.403867 
1428.256650  	95.411980 
1429.693528  	94.901949 
1431.130406  	94.744091 
1432.567283  	94.526341 
1434.004161  	94.559578 
1435.441039  	94.643804 
1436.877917  	93.482674 
1438.314795  	93.238973 
1439.751673  	93.660983 
1441.188551  	93.497649 
1442.625429  	93.182271 
1444.062307  	93.083572 
1445.499185  	93.110536 
1446.936063  	93.124752 
1448.372941  	93.017614 
1449.809818  	93.316026 
1451.246696  	93.717198 
1452.683574  	93.573225 
1454.120452  	93.680132 
1455.557330  	94.296360 
1456.994208  	93.695519 
1458.431086  	93.292124 
1459.867964  	94.141038 
1461.304842  	95.070676 
1462.741720  	95.950562 
1464.178598  	96.271281 
1465.615476  	95.874036 
1467.052353  	95.799296 
1468.489231  	95.940850 
1469.926109  	96.092042 
1471.362987  	96.003529 
1472.799865  	95.173416 
1474.236743  	94.995724 
1475.673621  	95.005181 
1477.110499  	94.958512 
1478.547377  	95.348394 
1479.984255  	95.392821 
1481.421133  	94.750049 
1482.858011  	94.568117 
1484.294888  	94.679169 
1485.731766  	94.600463 
1487.168644  	94.490919 
1488.605522  	93.970526 
1490.042400  	93.186715 
1491.479278  	94.316341 
1492.916156  	95.562961 
1494.353034  	96.392438 
1495.789912  	96.666895 
1497.226790  	96.146414 
1498.663668  	95.943308 
1500.100546  	95.816371 
1501.537423  	95.631143 
1502.974301  	95.981309 
1504.411179  	97.456451 
1505.848057  	97.889601 
1507.284935  	92.661395 
1508.721813  	91.385393 
1510.158691  	93.189818 
1511.595569  	94.701332 
1513.032447  	95.408810 
1514.469325  	95.430593 
1515.906203  	94.842341 
1517.343081  	94.205735 
1518.779958  	95.223420 
1520.216836  	96.005833 
1521.653714  	95.493966 
1523.090592  	95.394223 
1524.527470  	95.730020 
1525.964348  	95.442410 
1527.401226  	95.036885 
1528.838104  	95.483365 
1530.274982  	95.860221 
1531.711860  	96.073871 
1533.148738  	96.032220 
1534.585616  	95.347237 
1536.022493  	95.724340 
1537.459371  	97.285237 
1538.896249  	98.856458 
1540.333127  	97.831020 
1541.770005  	96.854251 
1543.206883  	95.955621 
1544.643761  	94.970473 
1546.080639  	95.743990 
1547.517517  	96.874150 
1548.954395  	96.567144 
1550.391273  	95.197897 
1551.828151  	96.177106 
1553.265028  	97.291903 
1554.701906  	96.610421 
1556.138784  	97.073059 
1557.575662  	99.735026 
1559.012540  	98.859410 
1560.449418  	96.627729 
1561.886296  	97.097624 
1563.323174  	97.635205 
1564.760052  	97.721123 
1566.196930  	97.335487 
1567.633808  	97.755403 
1569.070686  	98.237267 
1570.507563  	97.468503 
1571.944441  	97.148919 
1573.381319  	97.754911 
1574.818197  	99.016194 
1576.255075  	99.207775 
1577.691953  	97.670436 
1579.128831  	97.484701 
1580.565709  	97.983102 
1582.002587  	97.779979 
1583.439465  	97.589113 
1584.876343  	97.724929 
1586.313221  	97.674812 
1587.750098  	97.690030 
1589.186976  	97.543429 
1590.623854  	97.333393 
1592.060732  	97.489777 
1593.497610  	97.469778 
1594.934488  	97.350165 
1596.371366  	97.421979 
1597.808244  	97.456416 
1599.245122  	97.584432 
1600.682000  	97.461314 
1602.118878  	97.152247 
1603.555756  	97.197064 
1604.992633  	97.204096 
1606.429511  	97.132620 
1607.866389  	97.089743 
1609.303267  	97.002588 
1610.740145  	97.115563 
1612.177023  	97.108022 
1613.613901  	97.118336 
1615.050779  	97.858312 
1616.487657  	98.438676 
1617.924535  	97.133241 
1619.361413  	96.628901 
1620.798291  	96.817353 
1622.235168  	97.083837 
1623.672046  	96.778845 
1625.108924  	96.372256 
1626.545802  	96.503846 
1627.982680  	96.674721 
1629.419558  	96.480631 
1630.856436  	96.566912 
1632.293314  	96.815114 
1633.730192  	97.616410 
1635.167070  	98.570670 
1636.603948  	96.805360 
1638.040826  	96.099168 
1639.477703  	96.623349 
1640.914581  	96.779583 
1642.351459  	96.651331 
1643.788337  	97.156617 
1645.225215  	97.861614 
1646.662093  	97.242707 
1648.098971  	95.685610 
1649.535849  	96.148186 
1650.972727  	98.323707 
1652.409605  	101.575841 
1653.846483  	97.763369 
1655.283361  	95.948611 
1656.720239  	96.529221 
1658.157116  	97.199138 
1659.593994  	97.109072 
1661.030872  	97.359276 
1662.467750  	97.767345 
1663.904628  	97.023591 
1665.341506  	96.865378 
1666.778384  	97.343593 
1668.215262  	97.570177 
1669.652140  	97.443410 
1671.089018  	96.735999 
1672.525896  	96.837193 
1673.962774  	98.187369 
1675.399651  	97.943216 
1676.836529  	96.662062 
1678.273407  	96.783812 
1679.710285  	96.183896 
1681.147163  	95.639348 
1682.584041  	97.285061 
1684.020919  	97.766762 
1685.457797  	96.569142 
1686.894675  	96.780167 
1688.331553  	96.594347 
1689.768431  	96.571443 
1691.205309  	97.065804 
1692.642186  	97.251878 
1694.079064  	98.122648 
1695.515942  	98.600572 
1696.952820  	96.452400 
1698.389698  	97.196068 
1699.826576  	99.532122 
1701.263454  	97.179518 
1702.700332  	96.394144 
1704.137210  	97.463562 
1705.574088  	97.506163 
1707.010966  	96.886077 
1708.447844  	97.140377 
1709.884721  	97.005902 
1711.321599  	96.912389 
1712.758477  	97.073049 
1714.195355  	96.563647 
1715.632233  	96.620508 
1717.069111  	97.253396 
1718.505989  	96.492238 
1719.942867  	96.577136 
1721.379745  	97.264744 
1722.816623  	97.333914 
1724.253501  	97.063298 
1725.690379  	97.271055 
1727.127256  	97.462717 
1728.564134  	97.161080 
1730.001012  	96.324196 
1731.437890  	96.312290 
1732.874768  	97.508073 
1734.311646  	97.411603 
1735.748524  	96.536847 
1737.185402  	97.003914 
1738.622280  	97.729476 
1740.059158  	97.632240 
1741.496036  	97.143726 
1742.932914  	96.345427 
1744.369791  	95.704642 
1745.806669  	96.325061 
1747.243547  	96.481863 
1748.680425  	95.959961 
1750.117303  	96.001283 
1751.554181  	95.702078 
1752.991059  	96.156180 
1754.427937  	97.258347 
1755.864815  	97.506154 
1757.301693  	96.330164 
1758.738571  	96.429252 
1760.175449  	97.277628 
1761.612326  	97.280052 
1763.049204  	96.819851 
1764.486082  	97.113874 
1765.922960  	97.590738 
1767.359838  	97.237832 
1768.796716  	96.606704 
1770.233594  	97.368366 
1771.670472  	98.227207 
1773.107350  	97.776420 
1774.544228  	97.177185 
1775.981106  	97.084031 
1777.417984  	97.293569 
1778.854861  	97.451979 
1780.291739  	97.198653 
1781.728617  	97.074885 
1783.165495  	97.395066 
1784.602373  	97.285088 
1786.039251  	97.095164 
1787.476129  	97.505033 
1788.913007  	97.650997 
1790.349885  	97.246065 
1791.786763  	97.222898 
1793.223641  	97.140076 
1794.660519  	96.787338 
1796.097396  	96.684960 
1797.534274  	97.062446 
1798.971152  	97.550824 
1800.408030  	97.006344 
1801.844908  	95.876644 
1803.281786  	96.340783 
1804.718664  	97.424194 
1806.155542  	97.628855 
1807.592420  	97.486309 
1809.029298  	97.522692 
1810.466176  	97.350123 
1811.903054  	97.005796 
1813.339931  	97.158438 
1814.776809  	97.817953 
1816.213687  	97.856939 
1817.650565  	97.591139 
1819.087443  	97.800208 
1820.524321  	97.945775 
1821.961199  	97.766326 
1823.398077  	97.709665 
1824.834955  	97.310742 
1826.271833  	97.092902 
1827.708711  	97.579058 
1829.145589  	97.696311 
1830.582466  	97.286612 
1832.019344  	97.229707 
1833.456222  	97.324780 
1834.893100  	97.580675 
1836.329978  	97.568310 
1837.766856  	97.364259 
1839.203734  	97.496780 
1840.640612  	97.474134 
1842.077490  	97.325013 
1843.514368  	97.397642 
1844.951246  	97.040526 
1846.388124  	96.629390 
1847.825001  	96.750568 
1849.261879  	97.132465 
1850.698757  	97.529803 
1852.135635  	97.793585 
1853.572513  	97.634352 
1855.009391  	97.530931 
1856.446269  	97.434269 
1857.883147  	97.288216 
1859.320025  	97.268090 
1860.756903  	97.158361 
1862.193781  	97.121542 
1863.630659  	97.305759 
1865.067536  	97.324719 
1866.504414  	97.183919 
1867.941292  	96.873661 
1869.378170  	96.327807 
1870.815048  	96.385432 
1872.251926  	96.933144 
1873.688804  	97.362767 
1875.125682  	97.437646 
1876.562560  	97.478908 
1877.999438  	97.410599 
1879.436316  	97.294756 
1880.873194  	97.400566 
1882.310072  	97.608358 
1883.746949  	97.569776 
1885.183827  	97.361677 
1886.620705  	97.357013 
1888.057583  	97.430200 
1889.494461  	97.015259 
1890.931339  	96.757934 
1892.368217  	97.263674 
1893.805095  	97.398542 
1895.241973  	97.117818 
1896.678851  	97.110240 
1898.115729  	97.246012 
1899.552607  	97.401775 
1900.989484  	97.519947 
1902.426362  	97.547672 
1903.863240  	97.694663 
1905.300118  	97.693384 
1906.736996  	97.630851 
1908.173874  	97.371492 
1909.610752  	97.242384 
1911.047630  	97.306770 
1912.484508  	97.739844 
1913.921386  	97.828321 
1915.358264  	97.967907 
1916.795142  	98.057058 
1918.232019  	97.596986 
1919.668897  	97.489866 
1921.105775  	97.816206 
1922.542653  	97.583734 
1923.979531  	97.449578 
1925.416409  	97.948259 
1926.853287  	98.190742 
1928.290165  	98.036741 
1929.727043  	98.073573 
1931.163921  	98.112262 
1932.600799  	98.181373 
1934.037677  	98.312317 
1935.474554  	98.381261 
1936.911432  	98.269565 
1938.348310  	98.113764 
1939.785188  	98.093879 
1941.222066  	97.917114 
1942.658944  	97.524768 
1944.095822  	97.524933 
1945.532700  	97.842705 
1946.969578  	98.057794 
1948.406456  	98.175245 
1949.843334  	98.397356 
1951.280212  	98.537057 
1952.717089  	98.392718 
1954.153967  	98.304913 
1955.590845  	98.415341 
1957.027723  	98.671266 
1958.464601  	98.955764 
1959.901479  	98.774030 
1961.338357  	98.592188 
1962.775235  	98.872562 
1964.212113  	98.764282 
1965.648991  	98.384764 
1967.085869  	98.401692 
1968.522747  	98.678688 
1969.959624  	98.907725 
1971.396502  	98.937910 
1972.833380  	98.920135 
1974.270258  	99.259104 
1975.707136  	99.131283 
1977.144014  	99.303800 
1978.580892  	100.099267 
1980.017770  	99.820453 
1981.454648  	99.098320 
1982.891526  	98.816188 
1984.328404  	98.362205 
1985.765282  	98.110296 
1987.202159  	97.997349 
1988.639037  	97.900779 
1990.075915  	98.146958 
1991.512793  	98.321522 
1992.949671  	98.580812 
1994.386549  	99.112236 
1995.823427  	99.270463 
1997.260305  	98.687011 
1998.697183  	98.621662 
2000.134061  	99.179849 
2001.570939  	99.152723 
2003.007817  	98.595858 
2004.444694  	98.376923 
2005.881572  	98.524888 
2007.318450  	98.564052 
2008.755328  	98.521169 
2010.192206  	98.751541 
2011.629084  	98.936234 
2013.065962  	99.049585 
2014.502840  	99.325282 
2015.939718  	99.018516 
2017.376596  	98.104728 
2018.813474  	98.277342 
2020.250352  	99.398668 
2021.687229  	99.772225 
2023.124107  	99.414537 
2024.560985  	99.312158 
2025.997863  	99.163633 
2027.434741  	98.858868 
2028.871619  	98.746394 
2030.308497  	98.558195 
2031.745375  	98.397332 
2033.182253  	98.819266 
2034.619131  	99.226319 
2036.056009  	99.207642 
2037.492887  	99.381302 
2038.929764  	99.517617 
2040.366642  	99.146817 
2041.803520  	98.770032 
2043.240398  	98.708196 
2044.677276  	98.950995 
2046.114154  	99.364407 
2047.551032  	99.437840 
2048.987910  	99.256935 
2050.424788  	99.155612 
2051.861666  	98.979368 
2053.298544  	99.025353 
2054.735422  	99.326517 
2056.172299  	99.415800 
2057.609177  	99.545013 
2059.046055  	99.686564 
2060.482933  	99.358041 
2061.919811  	99.094814 
2063.356689  	99.163483 
2064.793567  	99.045406 
2066.230445  	98.851304 
2067.667323  	98.879059 
2069.104201  	99.022395 
2070.541079  	99.197257 
2071.977957  	99.315812 
2073.414834  	99.434061 
2074.851712  	99.583208 
2076.288590  	99.474138 
2077.725468  	99.251467 
2079.162346  	99.278754 
2080.599224  	99.359975 
2082.036102  	99.365995 
2083.472980  	99.419747 
2084.909858  	99.302084 
2086.346736  	99.058111 
2087.783614  	99.069417 
2089.220492  	99.054326 
2090.657369  	98.774393 
2092.094247  	98.762106 
2093.531125  	99.028308 
2094.968003  	99.033358 
2096.404881  	98.854957 
2097.841759  	98.831958 
2099.278637  	98.920464 
2100.715515  	99.016487 
2102.152393  	99.091511 
2103.589271  	99.059964 
2105.026149  	98.930670 
2106.463027  	98.943765 
2107.899904  	99.148818 
2109.336782  	99.198172 
2110.773660  	99.064880 
2112.210538  	99.067629 
2113.647416  	99.139645 
2115.084294  	99.112857 
2116.521172  	99.053778 
2117.958050  	98.921945 
2119.394928  	98.777763 
2120.831806  	98.834338 
2122.268684  	98.919875 
2123.705562  	98.852250 
2125.142440  	98.976181 
2126.579317  	99.251845 
2128.016195  	99.145248 
2129.453073  	98.857279 
2130.889951  	98.846030 
2132.326829  	98.882310 
2133.763707  	98.779486 
2135.200585  	98.593343 
2136.637463  	98.410011 
2138.074341  	98.475100 
2139.511219  	98.597783 
2140.948097  	98.551456 
2142.384975  	98.589181 
2143.821852  	98.683217 
2145.258730  	98.676861 
2146.695608  	98.588063 
2148.132486  	98.515132 
2149.569364  	98.755614 
2151.006242  	99.105718 
2152.443120  	99.177174 
2153.879998  	99.253404 
2155.316876  	99.306832 
2156.753754  	99.123186 
2158.190632  	99.168130 
2159.627510  	99.446681 
2161.064387  	99.611737 
2162.501265  	99.875372 
2163.938143  	100.211261 
2165.375021  	100.191741 
2166.811899  	99.451145 
2168.248777  	98.716537 
2169.685655  	99.060887 
2171.122533  	99.459300 
2172.559411  	99.272213 
2173.996289  	99.626254 
2175.433167  	100.248722 
2176.870045  	100.058952 
2178.306922  	99.626371 
2179.743800  	99.567474 
2181.180678  	99.704455 
2182.617556  	99.660995 
2184.054434  	99.368356 
2185.491312  	99.180771 
2186.928190  	99.202586 
2188.365068  	99.194459 
2189.801946  	98.946954 
2191.238824  	98.741851 
2192.675702  	98.799180 
2194.112580  	98.738111 
2195.549457  	98.667826 
2196.986335  	98.828574 
2198.423213  	99.006366 
2199.860091  	99.239624 
2201.296969  	99.290181 
2202.733847  	99.068817 
2204.170725  	99.177595 
2205.607603  	99.352138 
2207.044481  	99.179047 
2208.481359  	98.955816 
2209.918237  	98.651226 
2211.355115  	98.594975 
2212.791992  	98.878317 
2214.228870  	98.774037 
2215.665748  	98.442341 
2217.102626  	98.277287 
2218.539504  	98.283475 
2219.976382  	98.591385 
2221.413260  	98.730609 
2222.850138  	98.589358 
2224.287016  	98.633176 
2225.723894  	98.648486 
2227.160772  	98.695464 
2228.597650  	98.923659 
2230.034527  	98.945755 
2231.471405  	98.893561 
2232.908283  	98.814124 
2234.345161  	98.589069 
2235.782039  	98.629780 
2237.218917  	98.842719 
2238.655795  	98.846973 
2240.092673  	98.661626 
2241.529551  	98.431437 
2242.966429  	98.498579 
2244.403307  	98.743290 
2245.840185  	98.697488 
2247.277062  	98.513818 
2248.713940  	98.439923 
2250.150818  	98.527730 
2251.587696  	98.459503 
2253.024574  	98.261930 
2254.461452  	98.137023 
2255.898330  	98.079697 
2257.335208  	98.020859 
2258.772086  	97.989396 
2260.208964  	97.960399 
2261.645842  	97.969384 
2263.082720  	98.041339 
2264.519597  	98.080429 
2265.956475  	97.956922 
2267.393353  	97.729652 
2268.830231  	97.746373 
2270.267109  	97.802460 
2271.703987  	97.878480 
2273.140865  	98.008589 
2274.577743  	98.016784 
2276.014621  	98.040958 
2277.451499  	98.125383 
2278.888377  	98.114913 
2280.325255  	98.093750 
2281.762132  	98.155641 
2283.199010  	98.215517 
2284.635888  	98.253194 
2286.072766  	98.328184 
2287.509644  	98.485917 
2288.946522  	98.613877 
2290.383400  	98.623974 
2291.820278  	98.614117 
2293.257156  	98.592047 
2294.694034  	98.399283 
2296.130912  	98.341439 
2297.567790  	98.409232 
2299.004667  	98.244760 
2300.441545  	98.113653 
2301.878423  	97.960598 
2303.315301  	97.919502 
2304.752179  	97.819057 
2306.189057  	97.609748 
2307.625935  	97.451153 
2309.062813  	97.333731 
2310.499691  	97.270780 
2311.936569  	97.305032 
2313.373447  	97.395500 
2314.810325  	97.622644 
2316.247202  	97.858068 
2317.684080  	97.902454 
2319.120958  	97.933825 
2320.557836  	98.122938 
2321.994714  	98.430668 
2323.431592  	98.903594 
2324.868470  	99.708683 
2326.305348  	100.587080 
2327.742226  	100.922351 
2329.179104  	100.775460 
2330.615982  	100.660075 
2332.052860  	100.738582 
2333.489737  	101.139854 
2334.926615  	101.564298 
2336.363493  	101.570598 
2337.800371  	101.543914 
2339.237249  	101.602742 
2340.674127  	101.503827 
2342.111005  	101.448613 
2343.547883  	101.157632 
2344.984761  	100.424536 
2346.421639  	99.873176 
2347.858517  	99.944043 
2349.295395  	100.327975 
2350.732273  	100.445880 
2352.169150  	100.330868 
2353.606028  	100.046637 
2355.042906  	99.773222 
2356.479784  	99.667730 
2357.916662  	99.670923 
2359.353540  	99.657359 
2360.790418  	99.648176 
2362.227296  	99.592579 
2363.664174  	99.259327 
2365.101052  	98.812148 
2366.537930  	98.386430 
2367.974808  	97.769599 
2369.411685  	97.415883 
2370.848563  	97.225362 
2372.285441  	96.827006 
2373.722319  	96.588542 
2375.159197  	96.516705 
2376.596075  	96.526802 
2378.032953  	96.715392 
2379.469831  	96.917316 
2380.906709  	97.237917 
2382.343587  	97.714732 
2383.780465  	98.070074 
2385.217343  	98.337313 
2386.654220  	98.584007 
2388.091098  	98.784977 
2389.527976  	98.911420 
2390.964854  	99.021742 
2392.401732  	99.067516 
2393.838610  	99.040488 
2395.275488  	98.985721 
2396.712366  	98.992962 
2398.149244  	99.032268 
2399.586122  	98.939076 
2401.023000  	98.792436 
2402.459878  	98.733940 
2403.896755  	98.723532 
2405.333633  	98.732465 
2406.770511  	98.750645 
2408.207389  	98.788171 
2409.644267  	98.816867 
2411.081145  	98.747583 
2412.518023  	98.649660 
2413.954901  	98.617576 
2415.391779  	98.655118 
2416.828657  	98.735862 
2418.265535  	98.737556 
2419.702413  	98.655051 
2421.139290  	98.621258 
2422.576168  	98.681309 
2424.013046  	98.810089 
2425.449924  	98.845358 
2426.886802  	98.782297 
2428.323680  	98.871073 
2429.760558  	98.968997 
2431.197436  	98.849652 
2432.634314  	98.709360 
2434.071192  	98.662797 
2435.508070  	98.700673 
2436.944948  	98.762519 
2438.381825  	98.714798 
2439.818703  	98.694495 
2441.255581  	98.758124 
2442.692459  	98.733348 
2444.129337  	98.707000 
2445.566215  	98.754063 
2447.003093  	98.810607 
2448.439971  	98.882843 
2449.876849  	98.882607 
2451.313727  	98.841961 
2452.750605  	98.859950 
2454.187483  	98.806164 
2455.624360  	98.740669 
2457.061238  	98.816495 
2458.498116  	98.883286 
2459.934994  	98.860949 
2461.371872  	98.825588 
2462.808750  	98.817382 
2464.245628  	98.882719 
2465.682506  	98.930305 
2467.119384  	98.874604 
2468.556262  	98.831653 
2469.993140  	98.823768 
2471.430018  	98.839453 
2472.866895  	98.942665 
2474.303773  	98.977148 
2475.740651  	98.869019 
2477.177529  	98.836553 
2478.614407  	98.867540 
2480.051285  	98.838812 
2481.488163  	98.829278 
2482.925041  	98.813548 
2484.361919  	98.774926 
2485.798797  	98.799449 
2487.235675  	98.794233 
2488.672553  	98.747629 
2490.109430  	98.764862 
2491.546308  	98.777439 
2492.983186  	98.767738 
2494.420064  	98.769773 
2495.856942  	98.738079 
2497.293820  	98.713678 
2498.730698  	98.716685 
2500.167576  	98.726062 
2501.604454  	98.767103 
2503.041332  	98.795726 
2504.478210  	98.820841 
2505.915088  	98.908686 
2507.351965  	98.978755 
2508.788843  	98.954268 
2510.225721  	98.884991 
2511.662599  	98.808938 
2513.099477  	98.714898 
2514.536355  	98.662732 
2515.973233  	98.735402 
2517.410111  	98.796328 
2518.846989  	98.756932 
2520.283867  	98.778356 
2521.720745  	98.829549 
2523.157623  	98.799967 
2524.594500  	98.801049 
2526.031378  	98.823440 
2527.468256  	98.773854 
2528.905134  	98.743054 
2530.342012  	98.794347 
2531.778890  	98.799540 
2533.215768  	98.706908 
2534.652646  	98.744447 
2536.089524  	98.901365 
2537.526402  	98.865150 
2538.963280  	98.763666 
2540.400158  	98.780050 
2541.837035  	98.750158 
2543.273913  	98.743320 
2544.710791  	98.760177 
2546.147669  	98.648211 
2547.584547  	98.601881 
2549.021425  	98.647049 
2550.458303  	98.636443 
2551.895181  	98.652201 
2553.332059  	98.649000 
2554.768937  	98.611238 
2556.205815  	98.625968 
2557.642693  	98.593879 
2559.079570  	98.554932 
2560.516448  	98.620591 
2561.953326  	98.708398 
2563.390204  	98.735786 
2564.827082  	98.676956 
2566.263960  	98.619360 
2567.700838  	98.616642 
2569.137716  	98.585942 
2570.574594  	98.601593 
2572.011472  	98.678173 
2573.448350  	98.677313 
2574.885228  	98.629860 
2576.322105  	98.571619 
2577.758983  	98.536127 
2579.195861  	98.575513 
2580.632739  	98.586474 
2582.069617  	98.555512 
2583.506495  	98.509288 
2584.943373  	98.453759 
2586.380251  	98.522251 
2587.817129  	98.580860 
2589.254007  	98.471077 
2590.690885  	98.444407 
2592.127763  	98.532317 
2593.564641  	98.563489 
2595.001518  	98.616872 
2596.438396  	98.654977 
2597.875274  	98.579804 
2599.312152  	98.517587 
2600.749030  	98.510865 
2602.185908  	98.499654 
2603.622786  	98.512337 
2605.059664  	98.520145 
2606.496542  	98.457157 
2607.933420  	98.406756 
2609.370298  	98.416087 
2610.807176  	98.418159 
2612.244053  	98.464284 
2613.680931  	98.518491 
2615.117809  	98.441370 
2616.554687  	98.376651 
2617.991565  	98.395971 
2619.428443  	98.337382 
2620.865321  	98.290226 
2622.302199  	98.349610 
2623.739077  	98.389692 
2625.175955  	98.393425 
2626.612833  	98.411572 
2628.049711  	98.435776 
2629.486588  	98.404191 
2630.923466  	98.308509 
2632.360344  	98.311069 
2633.797222  	98.392935 
2635.234100  	98.372036 
2636.670978  	98.331679 
2638.107856  	98.361108 
2639.544734  	98.382803 
2640.981612  	98.400198 
2642.418490  	98.427238 
2643.855368  	98.436628 
2645.292246  	98.419957 
2646.729123  	98.398698 
2648.166001  	98.412511 
2649.602879  	98.399284 
2651.039757  	98.336704 
2652.476635  	98.330322 
2653.913513  	98.354130 
2655.350391  	98.346684 
2656.787269  	98.353054 
2658.224147  	98.361999 
2659.661025  	98.360129 
2661.097903  	98.377403 
2662.534781  	98.392447 
2663.971658  	98.362210 
2665.408536  	98.281457 
2666.845414  	98.229858 
2668.282292  	98.241683 
2669.719170  	98.230544 
2671.156048  	98.216923 
2672.592926  	98.248233 
2674.029804  	98.232623 
2675.466682  	98.180036 
2676.903560  	98.187485 
2678.340438  	98.212278 
2679.777316  	98.187734 
2681.214193  	98.160470 
2682.651071  	98.186286 
2684.087949  	98.206627 
2685.524827  	98.163975 
2686.961705  	98.129510 
2688.398583  	98.133797 
2689.835461  	98.117796 
2691.272339  	98.081775 
2692.709217  	98.057757 
2694.146095  	98.053977 
2695.582973  	98.051477 
2697.019851  	98.029172 
2698.456728  	98.020251 
2699.893606  	98.033516 
2701.330484  	98.036109 
2702.767362  	98.033846 
2704.204240  	98.023251 
2705.641118  	98.006051 
2707.077996  	98.000961 
2708.514874  	97.975307 
2709.951752  	97.933544 
2711.388630  	97.919282 
2712.825508  	97.903774 
2714.262386  	97.867705 
2715.699263  	97.850711 
2717.136141  	97.861954 
2718.573019  	97.859649 
2720.009897  	97.806677 
2721.446775  	97.732649 
2722.883653  	97.690134 
2724.320531  	97.662154 
2725.757409  	97.609186 
2727.194287  	97.549017 
2728.631165  	97.525883 
2730.068043  	97.531405 
2731.504921  	97.485462 
2732.941798  	97.354853 
2734.378676  	97.236807 
2735.815554  	97.194128 
2737.252432  	97.155639 
2738.689310  	97.102311 
2740.126188  	97.090104 
2741.563066  	97.108493 
2742.999944  	97.155556 
2744.436822  	97.233876 
2745.873700  	97.277492 
2747.310578  	97.292590 
2748.747456  	97.329493 
2750.184333  	97.357392 
2751.621211  	97.363092 
2753.058089  	97.357973 
2754.494967  	97.333770 
2755.931845  	97.305890 
2757.368723  	97.286887 
2758.805601  	97.292672 
2760.242479  	97.297606 
2761.679357  	97.241822 
2763.116235  	97.188029 
2764.553113  	97.170098 
2765.989991  	97.122647 
2767.426868  	97.106651 
2768.863746  	97.132854 
2770.300624  	97.111472 
2771.737502  	97.116198 
2773.174380  	97.168523 
2774.611258  	97.161308 
2776.048136  	97.129311 
2777.485014  	97.133623 
2778.921892  	97.167410 
2780.358770  	97.215861 
2781.795648  	97.230244 
2783.232526  	97.232991 
2784.669403  	97.255115 
2786.106281  	97.245564 
2787.543159  	97.229889 
2788.980037  	97.217598 
2790.416915  	97.174331 
2791.853793  	97.182549 
2793.290671  	97.220397 
2794.727549  	97.170744 
2796.164427  	97.120968 
2797.601305  	97.136213 
2799.038183  	97.109592 
2800.475061  	97.041426 
2801.911938  	97.022561 
2803.348816  	97.033733 
2804.785694  	96.997493 
2806.222572  	96.928613 
2807.659450  	96.890522 
2809.096328  	96.841099 
2810.533206  	96.750786 
2811.970084  	96.697425 
2813.406962  	96.647173 
2814.843840  	96.537369 
2816.280718  	96.490854 
2817.717596  	96.545381 
2819.154474  	96.544044 
2820.591351  	96.467885 
2822.028229  	96.457033 
2823.465107  	96.500309 
2824.901985  	96.462601 
2826.338863  	96.391158 
2827.775741  	96.391109 
2829.212619  	96.370337 
2830.649497  	96.302740 
2832.086375  	96.283607 
2833.523253  	96.266333 
2834.960131  	96.214407 
2836.397009  	96.151293 
2837.833886  	96.041963 
2839.270764  	95.923360 
2840.707642  	95.814603 
2842.144520  	95.703895 
2843.581398  	95.678380 
2845.018276  	95.680625 
2846.455154  	95.607978 
2847.892032  	95.540652 
2849.328910  	95.480087 
2850.765788  	95.404401 
2852.202666  	95.352514 
2853.639544  	95.251718 
2855.076421  	95.113736 
2856.513299  	94.995819 
2857.950177  	94.815659 
2859.387055  	94.571005 
2860.823933  	94.307195 
2862.260811  	94.018873 
2863.697689  	93.729723 
2865.134567  	93.405715 
2866.571445  	93.045268 
2868.008323  	92.737431 
2869.445201  	92.497887 
2870.882079  	92.276840 
2872.318956  	92.034833 
2873.755834  	91.812302 
2875.192712  	91.611027 
2876.629590  	91.312270 
2878.066468  	90.931216 
2879.503346  	90.512844 
2880.940224  	90.002316 
2882.377102  	89.465019 
2883.813980  	88.909716 
2885.250858  	88.311486 
2886.687736  	87.843575 
2888.124614  	87.556747 
2889.561491  	87.365310 
2890.998369  	87.259266 
2892.435247  	87.234788 
2893.872125  	87.268888 
2895.309003  	87.281985 
2896.745881  	87.297870 
2898.182759  	87.462817 
2899.619637  	87.741568 
2901.056515  	88.034402 
2902.493393  	88.303753 
2903.930271  	88.546493 
2905.367149  	88.870168 
2906.804026  	89.232926 
2908.240904  	89.455545 
2909.677782  	89.600361 
2911.114660  	89.759439 
2912.551538  	89.856593 
2913.988416  	89.894760 
2915.425294  	89.918134 
2916.862172  	89.903557 
2918.299050  	89.890013 
2919.735928  	89.904098 
2921.172806  	89.811607 
2922.609684  	89.556586 
2924.046561  	89.276015 
2925.483439  	88.963316 
2926.920317  	88.532695 
2928.357195  	88.108805 
2929.794073  	87.850905 
2931.230951  	87.879218 
2932.667829  	88.205719 
2934.104707  	88.635174 
2935.541585  	89.070469 
2936.978463  	89.473316 
2938.415341  	89.789020 
2939.852219  	90.059153 
2941.289096  	90.249269 
2942.725974  	90.431911 
2944.162852  	90.744403 
2945.599730  	91.020567 
2947.036608  	91.230617 
2948.473486  	91.468524 
2949.910364  	91.576067 
2951.347242  	91.599369 
2952.784120  	91.630580 
2954.220998  	91.541172 
2955.657876  	91.444893 
2957.094754  	91.381733 
2958.531631  	91.153931 
2959.968509  	90.764818 
2961.405387  	90.233624 
2962.842265  	89.602821 
2964.279143  	88.922107 
2965.716021  	88.011297 
2967.152899  	86.858632 
2968.589777  	85.538708 
2970.026655  	84.033768 
2971.463533  	82.534035 
2972.900411  	81.149040 
2974.337289  	80.031979 
2975.774166  	79.470529 
2977.211044  	79.433973 
2978.647922  	79.902967 
2980.084800  	80.833367 
2981.521678  	81.975374 
2982.958556  	83.256901 
2984.395434  	84.605711 
2985.832312  	85.844705 
2987.269190  	86.978705 
2988.706068  	88.064126 
2990.142946  	89.071247 
2991.579824  	89.948469 
2993.016701  	90.646921 
2994.453579  	91.245815 
2995.890457  	91.850192 
2997.327335  	92.393077 
2998.764213  	92.817857 
3000.201091  	93.133474 
3001.637969  	93.348854 
3003.074847  	93.545071 
3004.511725  	93.755362 
3005.948603  	93.950343 
3007.385481  	94.162518 
3008.822359  	94.392715 
3010.259236  	94.540449 
3011.696114  	94.523565 
3013.132992  	94.465298 
3014.569870  	94.549265 
3016.006748  	94.683662 
3017.443626  	94.746922 
3018.880504  	94.805057 
3020.317382  	94.864497 
3021.754260  	94.903592 
3023.191138  	94.946568 
3024.628016  	94.983188 
3026.064894  	95.025908 
3027.501771  	95.068824 
3028.938649  	95.092868 
3030.375527  	95.090080 
3031.812405  	95.022395 
3033.249283  	94.977788 
3034.686161  	95.024045 
3036.123039  	95.067904 
3037.559917  	95.148611 
3038.996795  	95.252330 
3040.433673  	95.198283 
3041.870551  	95.085931 
3043.307429  	95.090333 
3044.744306  	95.141394 
3046.181184  	95.184336 
3047.618062  	95.201953 
3049.054940  	95.202356 
3050.491818  	95.246379 
3051.928696  	95.249793 
3053.365574  	95.161517 
3054.802452  	95.091033 
3056.239330  	95.042928 
3057.676208  	95.024696 
3059.113086  	95.127828 
3060.549964  	95.249072 
3061.986842  	95.233135 
3063.423719  	95.144595 
3064.860597  	95.098023 
3066.297475  	95.108695 
3067.734353  	95.136598 
3069.171231  	95.103017 
3070.608109  	95.015431 
3072.044987  	95.016564 
3073.481865  	95.099996 
3074.918743  	95.105805 
3076.355621  	95.073527 
3077.792499  	95.068474 
3079.229377  	94.988114 
3080.666254  	94.926358 
3082.103132  	95.004351 
3083.540010  	95.065109 
3084.976888  	95.071008 
3086.413766  	95.068239 
3087.850644  	95.017735 
3089.287522  	95.020801 
3090.724400  	95.012175 
3092.161278  	94.885633 
3093.598156  	94.894761 
3095.035034  	94.962546 
3096.471912  	94.816883 
3097.908789  	94.730592 
3099.345667  	94.792704 
3100.782545  	94.775923 
3102.219423  	94.772203 
3103.656301  	94.827491 
3105.093179  	94.877896 
3106.530057  	94.944025 
3107.966935  	94.941115 
3109.403813  	94.868997 
3110.840691  	94.789175 
3112.277569  	94.728082 
3113.714447  	94.784829 
3115.151324  	94.861715 
3116.588202  	94.822247 
3118.025080  	94.724387 
3119.461958  	94.623824 
3120.898836  	94.661161 
3122.335714  	94.779380 
3123.772592  	94.741182 
3125.209470  	94.690047 
3126.646348  	94.648671 
3128.083226  	94.530336 
3129.520104  	94.647117 
3130.956982  	94.861984 
3132.393859  	94.778282 
3133.830737  	94.642221 
3135.267615  	94.647523 
3136.704493  	94.645736 
3138.141371  	94.639127 
3139.578249  	94.662841 
3141.015127  	94.692243 
3142.452005  	94.640740 
3143.888883  	94.499716 
3145.325761  	94.461509 
3146.762639  	94.582720 
3148.199517  	94.725940 
3149.636394  	94.734147 
3151.073272  	94.624296 
3152.510150  	94.629821 
3153.947028  	94.709082 
3155.383906  	94.668002 
3156.820784  	94.600580 
3158.257662  	94.553728 
3159.694540  	94.517566 
3161.131418  	94.522680 
3162.568296  	94.507041 
3164.005174  	94.511428 
3165.442052  	94.476594 
3166.878929  	94.347209 
3168.315807  	94.370678 
3169.752685  	94.468452 
3171.189563  	94.436992 
3172.626441  	94.432687 
3174.063319  	94.415733 
3175.500197  	94.352076 
3176.937075  	94.359783 
3178.373953  	94.280175 
3179.810831  	94.150498 
3181.247709  	94.178171 
3182.684587  	94.276511 
3184.121464  	94.332533 
3185.558342  	94.245550 
3186.995220  	94.082066 
3188.432098  	94.100384 
3189.868976  	94.205604 
3191.305854  	94.200404 
3192.742732  	94.137958 
3194.179610  	94.116187 
3195.616488  	94.178936 
3197.053366  	94.142839 
3198.490244  	93.976499 
3199.927122  	94.024839 
3201.363999  	94.167209 
3202.800877  	94.092098 
3204.237755  	94.045814 
3205.674633  	94.121295 
3207.111511  	94.070835 
3208.548389  	93.949893 
3209.985267  	93.899636 
3211.422145  	93.887257 
3212.859023  	93.914700 
3214.295901  	93.977053 
3215.732779  	93.985541 
3217.169657  	93.943795 
3218.606534  	93.892441 
3220.043412  	93.798815 
3221.480290  	93.779569 
3222.917168  	93.941331 
3224.354046  	94.046216 
3225.790924  	93.962879 
3227.227802  	93.917422 
3228.664680  	93.976838 
3230.101558  	93.982148 
3231.538436  	93.880502 
3232.975314  	93.763493 
3234.412192  	93.744994 
3235.849069  	93.816275 
3237.285947  	93.903216 
3238.722825  	93.980570 
3240.159703  	94.001109 
3241.596581  	93.969394 
3243.033459  	93.982912 
3244.470337  	93.990142 
3245.907215  	93.922558 
3247.344093  	93.940576 
3248.780971  	94.037446 
3250.217849  	93.997890 
3251.654727  	93.915562 
3253.091604  	93.928740 
3254.528482  	93.914266 
3255.965360  	93.935805 
3257.402238  	94.070466 
3258.839116  	94.112370 
3260.275994  	94.083718 
3261.712872  	94.148291 
3263.149750  	94.207817 
3264.586628  	94.236421 
3266.023506  	94.277949 
3267.460384  	94.205037 
3268.897262  	94.067421 
3270.334139  	94.045309 
3271.771017  	94.062830 
3273.207895  	94.018393 
3274.644773  	93.961222 
3276.081651  	93.908573 
3277.518529  	93.909252 
3278.955407  	93.975739 
3280.392285  	94.023826 
3281.829163  	94.102322 
3283.266041  	94.139628 
3284.702919  	94.023040 
3286.139797  	94.041891 
3287.576674  	94.167021 
3289.013552  	94.071487 
3290.450430  	94.061559 
3291.887308  	94.231984 
3293.324186  	94.188578 
3294.761064  	94.123006 
3296.197942  	94.229857 
3297.634820  	94.303063 
3299.071698  	94.348482 
3300.508576  	94.327921 
3301.945454  	94.216195 
3303.382332  	94.160180 
3304.819210  	94.154779 
3306.256087  	94.240844 
3307.692965  	94.298540 
3309.129843  	94.115288 
3310.566721  	94.026054 
3312.003599  	94.170102 
3313.440477  	94.230960 
3314.877355  	94.241001 
3316.314233  	94.206809 
3317.751111  	94.043413 
3319.187989  	94.026327 
3320.624867  	94.194189 
3322.061745  	94.245712 
3323.498622  	94.148964 
3324.935500  	94.092122 
3326.372378  	94.127887 
3327.809256  	94.103971 
3329.246134  	93.988847 
3330.683012  	93.984126 
3332.119890  	94.124453 
3333.556768  	94.218761 
3334.993646  	94.149824 
3336.430524  	93.977076 
3337.867402  	93.866020 
3339.304280  	93.947762 
3340.741157  	94.167280 
3342.178035  	94.292831 
3343.614913  	94.261137 
3345.051791  	94.249817 
3346.488669  	94.253797 
3347.925547  	94.164125 
3349.362425  	94.075610 
3350.799303  	94.107202 
3352.236181  	94.244171 
3353.673059  	94.289702 
3355.109937  	94.104368 
3356.546815  	93.927985 
3357.983692  	93.974721 
3359.420570  	94.069177 
3360.857448  	93.995135 
3362.294326  	93.848775 
3363.731204  	93.878352 
3365.168082  	94.000374 
3366.604960  	94.043944 
3368.041838  	94.108668 
3369.478716  	94.140913 
3370.915594  	94.121046 
3372.352472  	94.190450 
3373.789350  	94.181963 
3375.226227  	94.134349 
3376.663105  	94.332879 
3378.099983  	94.537394 
3379.536861  	94.494064 
3380.973739  	94.358753 
3382.410617  	94.227797 
3383.847495  	94.110856 
3385.284373  	94.087037 
3386.721251  	94.242530 
3388.158129  	94.450209 
3389.595007  	94.487475 
3391.031885  	94.342078 
3392.468762  	94.095789 
3393.905640  	94.029071 
3395.342518  	94.254510 
3396.779396  	94.260979 
3398.216274  	94.063759 
3399.653152  	94.148078 
3401.090030  	94.278987 
3402.526908  	94.354905 
3403.963786  	94.578167 
3405.400664  	94.656296 
3406.837542  	94.522763 
3408.274420  	94.433133 
3409.711297  	94.363753 
3411.148175  	94.298717 
3412.585053  	94.277986 
3414.021931  	94.258503 
3415.458809  	94.243323 
3416.895687  	94.378481 
3418.332565  	94.587903 
3419.769443  	94.401370 
3421.206321  	94.007433 
3422.643199  	94.098840 
3424.080077  	94.446804 
3425.516955  	94.592913 
3426.953832  	94.561055 
3428.390710  	94.489130 
3429.827588  	94.554576 
3431.264466  	94.576150 
3432.701344  	94.473347 
3434.138222  	94.592781 
3435.575100  	94.656635 
3437.011978  	94.408810 
3438.448856  	94.348513 
3439.885734  	94.522363 
3441.322612  	94.500376 
3442.759490  	94.366796 
3444.196367  	94.541389 
3445.633245  	94.651638 
3447.070123  	94.119358 
3448.507001  	93.907982 
3449.943879  	94.581213 
3451.380757  	94.928012 
3452.817635  	94.811329 
3454.254513  	94.767227 
3455.691391  	94.605788 
3457.128269  	94.603641 
3458.565147  	94.831313 
3460.002025  	94.823632 
3461.438902  	94.698105 
3462.875780  	94.609096 
3464.312658  	94.661379 
3465.749536  	94.835439 
3467.186414  	94.839783 
3468.623292  	94.876922 
3470.060170  	94.958854 
3471.497048  	94.949626 
3472.933926  	95.104738 
3474.370804  	95.062168 
3475.807682  	94.868472 
3477.244560  	95.156212 
3478.681437  	95.332314 
3480.118315  	94.987364 
3481.555193  	94.596395 
3482.992071  	94.400075 
3484.428949  	94.701132 
3485.865827  	95.147190 
3487.302705  	95.046410 
3488.739583  	94.839773 
3490.176461  	95.002985 
3491.613339  	95.180668 
3493.050217  	95.164489 
3494.487095  	95.087003 
3495.923972  	95.036159 
3497.360850  	94.953824 
3498.797728  	94.982506 
3500.234606  	95.091454 
3501.671484  	94.779096 
3503.108362  	94.166810 
3504.545240  	94.100775 
3505.982118  	94.864697 
3507.418996  	95.529926 
3508.855874  	95.032833 
3510.292752  	94.276585 
3511.729630  	94.676188 
3513.166507  	95.189485 
3514.603385  	95.225296 
3516.040263  	95.477318 
3517.477141  	95.550495 
3518.914019  	95.269382 
3520.350897  	95.296552 
3521.787775  	95.252906 
3523.224653  	94.509876 
3524.661531  	93.841749 
3526.098409  	94.129807 
3527.535287  	94.571239 
3528.972165  	94.574690 
3530.409043  	94.741988 
3531.845920  	95.176889 
3533.282798  	95.736165 
3534.719676  	95.933045 
3536.156554  	95.174125 
3537.593432  	94.798664 
3539.030310  	95.410820 
3540.467188  	95.554475 
3541.904066  	95.592184 
3543.340944  	95.836766 
3544.777822  	95.052096 
3546.214700  	93.943907 
3547.651578  	93.946141 
3549.088455  	94.839026 
3550.525333  	95.822443 
3551.962211  	95.821441 
3553.399089  	95.121947 
3554.835967  	95.288781 
3556.272845  	95.823339 
3557.709723  	96.013157 
3559.146601  	95.722693 
3560.583479  	95.012028 
3562.020357  	94.969281 
3563.457235  	95.544130 
3564.894113  	95.445823 
3566.330990  	94.142785 
3567.767868  	92.258613 
3569.204746  	92.600866 
3570.641624  	94.517109 
3572.078502  	95.760561 
3573.515380  	96.106086 
3574.952258  	96.048697 
3576.389136  	95.964032 
3577.826014  	96.085224 
3579.262892  	95.852379 
3580.699770  	95.484169 
3582.136648  	95.623516 
3583.573525  	95.868090 
3585.010403  	96.082995 
3586.447281  	95.624231 
3587.884159  	93.853920 
3589.321037  	93.361762 
3590.757915  	94.880439 
3592.194793  	96.288688 
3593.631671  	96.234770 
3595.068549  	95.266074 
3596.505427  	95.196139 
3597.942305  	95.873994 
3599.379183  	96.372049 
3600.816060  	96.422908 
3602.252938  	95.971238 
3603.689816  	96.035582 
3605.126694  	96.598119 
3606.563572  	96.571405 
3608.000450  	95.960991 
3609.437328  	95.013568 
3610.874206  	94.964021 
3612.311084  	95.781887 
3613.747962  	95.147301 
3615.184840  	94.439097 
3616.621718  	95.747292 
3618.058595  	96.892232 
3619.495473  	96.195487 
3620.932351  	95.110119 
3622.369229  	95.063211 
3623.806107  	96.052687 
3625.242985  	96.423033 
3626.679863  	96.650587 
3628.116741  	98.189490 
3629.553619  	96.199854 
3630.990497  	93.513378 
3632.427375  	95.147978 
3633.864253  	96.678644 
3635.301130  	96.169501 
3636.738008  	96.476692 
3638.174886  	96.953014 
3639.611764  	96.537162 
3641.048642  	96.230276 
3642.485520  	95.760086 
3643.922398  	95.521453 
3645.359276  	96.248813 
3646.796154  	96.765287 
3648.233032  	96.314730 
3649.669910  	96.183530 
3651.106788  	95.112975 
3652.543665  	94.241520 
3653.980543  	95.931428 
3655.417421  	98.167504 
3656.854299  	97.475637 
3658.291177  	96.136906 
3659.728055  	96.451588 
3661.164933  	96.584154 
3662.601811  	96.642119 
3664.038689  	96.696923 
3665.475567  	96.536218 
3666.912445  	97.015749 
3668.349323  	97.895086 
3669.786200  	98.284079 
3671.223078  	96.549998 
3672.659956  	95.606099 
3674.096834  	98.202727 
3675.533712  	100.391739 
3676.970590  	96.462289 
3678.407468  	96.172384 
3679.844346  	97.376880 
3681.281224  	96.838024 
3682.718102  	96.928310 
3684.154980  	97.079855 
3685.591858  	96.738185 
3687.028735  	98.267629 
3688.465613  	99.608675 
3689.902491  	97.987378 
3691.339369  	97.426527 
3692.776247  	97.276179 
3694.213125  	97.202636 
3695.650003  	97.859633 
3697.086881  	97.826897 
3698.523759  	97.493263 
3699.960637  	98.317122 
3701.397515  	98.733739 
3702.834393  	97.732313 
3704.271270  	97.387129 
3705.708148  	97.585033 
3707.145026  	97.866665 
3708.581904  	98.591788 
3710.018782  	99.038976 
3711.455660  	98.530597 
3712.892538  	97.297311 
3714.329416  	95.962888 
3715.766294  	96.086641 
3717.203172  	97.318405 
3718.640050  	97.555601 
3720.076928  	97.270755 
3721.513805  	97.535427 
3722.950683  	96.885488 
3724.387561  	96.226292 
3725.824439  	96.610808 
3727.261317  	96.441598 
3728.698195  	96.234868 
3730.135073  	97.575163 
3731.571951  	99.605789 
3733.008829  	98.982015 
3734.445707  	96.890385 
3735.882585  	95.760468 
3737.319463  	95.210217 
3738.756340  	96.256510 
3740.193218  	97.067237 
3741.630096  	96.862852 
3743.066974  	98.925831 
3744.503852  	101.136769 
3745.940730  	95.409954 
3747.377608  	95.478854 
3748.814486  	99.420839 
3750.251364  	100.290508 
3751.688242  	98.764723 
3753.125120  	97.511285 
3754.561998  	96.277162 
3755.998875  	97.389224 
3757.435753  	98.247955 
3758.872631  	97.426175 
3760.309509  	97.569100 
3761.746387  	96.972395 
3763.183265  	96.924036 
3764.620143  	98.414631 
3766.057021  	97.599885 
3767.493899  	96.771003 
3768.930777  	98.432220 
3770.367655  	98.530712 
3771.804533  	97.129057 
3773.241411  	97.217214 
3774.678288  	97.637396 
3776.115166  	97.701040 
3777.552044  	97.991111 
3778.988922  	98.510294 
3780.425800  	97.665552 
3781.862678  	96.645353 
3783.299556  	97.477356 
3784.736434  	97.929940 
3786.173312  	97.029178 
3787.610190  	97.150918 
3789.047068  	97.568510 
3790.483946  	97.579823 
3791.920823  	97.510659 
3793.357701  	97.177729 
3794.794579  	97.928445 
3796.231457  	98.650864 
3797.668335  	96.833582 
3799.105213  	96.729536 
3800.542091  	99.530900 
3801.978969  	99.664566 
3803.415847  	96.150661 
3804.852725  	96.854262 
3806.289603  	99.924014 
3807.726481  	99.375672 
3809.163358  	96.702071 
3810.600236  	97.078310 
3812.037114  	97.332953 
3813.473992  	97.229114 
3814.910870  	99.274592 
3816.347748  	99.563412 
3817.784626  	96.478056 
3819.221504  	97.395686 
3820.658382  	100.471789 
3822.095260  	98.954429 
3823.532138  	96.164306 
3824.969016  	97.156355 
3826.405893  	98.354296 
3827.842771  	97.151213 
3829.279649  	97.040738 
3830.716527  	98.297559 
3832.153405  	98.037309 
3833.590283  	97.174659 
3835.027161  	97.515295 
3836.464039  	98.646436 
3837.900917  	99.356746 
3839.337795  	97.821647 
3840.774673  	96.434505 
3842.211551  	97.098065 
3843.648428  	97.586279 
3845.085306  	96.779525 
3846.522184  	96.312939 
3847.959062  	96.799428 
3849.395940  	97.112493 
3850.832818  	97.671848 
3852.269696  	100.268086 
3853.706574  	101.114649 
3855.143452  	96.934009 
3856.580330  	96.006760 
3858.017208  	96.348845 
3859.454086  	97.005696 
3860.890963  	97.957308 
3862.327841  	97.580845 
3863.764719  	97.130434 
3865.201597  	96.857878 
3866.638475  	95.451956 
3868.075353  	96.987833 
3869.512231  	99.429191 
3870.949109  	96.333469 
3872.385987  	95.406905 
3873.822865  	97.442976 
3875.259743  	96.758403 
3876.696621  	96.065866 
3878.133498  	97.484073 
3879.570376  	98.077345 
3881.007254  	96.309033 
3882.444132  	94.817462 
3883.881010  	96.105775 
3885.317888  	97.985331 
3886.754766  	96.336121 
3888.191644  	95.491545 
3889.628522  	97.643184 
3891.065400  	98.707089 
3892.502278  	96.638888 
3893.939156  	95.667546 
3895.376033  	96.254866 
3896.812911  	96.914989 
3898.249789  	97.221811 
3899.686667  	96.724424 
3901.123545  	95.757311 
3902.560423  	95.824921 
3903.997301  	96.197155 
3905.434179  	95.591104 
3906.871057  	95.616170 
3908.307935  	96.662188 
3909.744813  	97.365991 
3911.181691  	97.339530 
3912.618568  	96.930610 
3914.055446  	96.870038 
3915.492324  	97.138650 
3916.929202  	96.489439 
3918.366080  	95.769043 
3919.802958  	96.270045 
3921.239836  	96.576737 
3922.676714  	96.742030 
3924.113592  	96.846806 
3925.550470  	96.002310 
3926.987348  	95.932164 
3928.424226  	96.865468 
3929.861103  	96.958946 
3931.297981  	96.434445 
3932.734859  	95.873875 
3934.171737  	95.582921 
3935.608615  	96.407222 
3937.045493  	97.153641 
3938.482371  	96.925103 
3939.919249  	96.967627 
3941.356127  	97.153306 
3942.793005  	96.214229 
3944.229883  	95.443419 
3945.666761  	96.159503 
3947.103638  	96.711870 
3948.540516  	96.132237 
3949.977394  	95.715363 
3951.414272  	96.179571 
3952.851150  	96.778094 
3954.288028  	97.111025 
3955.724906  	97.051764 
3957.161784  	96.740147 
3958.598662  	96.678804 
3960.035540  	96.789858 
3961.472418  	96.569863 
3962.909296  	96.298477 
3964.346173  	96.557460 
3965.783051  	97.083587 
3967.219929  	97.207308 
3968.656807  	96.927144 
3970.093685  	96.657868 
3971.530563  	96.665929 
3972.967441  	96.836217 
3974.404319  	96.688452 
3975.841197  	96.385574 
3977.278075  	96.551016 
3978.714953  	96.964486 
3980.151831  	97.150789 
3981.588708  	97.109515 
3983.025586  	96.998234 
3984.462464  	96.948636 
3985.899342  	96.951627 
3987.336220  	97.038880 
3988.773098  	97.071726 
3990.209976  	96.753397 
3991.646854  	96.559259 
3993.083732  	96.891836 
3994.520610  	97.120630 
3995.957488  	97.009010 
3997.394366  	96.965093 
3998.831244  	97.039948 
4000.268121  	97.065664 