##TITLE=No Description
##DATA TYPE=INFRARED SPECTRUM
##XUNITS=1/CM
##YUNITS=%T
399.452061  	55.764849 
400.888939  	54.836705 
402.325817  	55.394337 
403.762695  	57.374282 
405.199573  	56.250269 
406.636451  	55.183739 
408.073328  	55.957571 
409.510206  	56.158172 
410.947084  	55.583805 
412.383962  	54.524932 
413.820840  	53.898481 
415.257718  	53.552334 
416.694596  	53.894159 
418.131474  	54.706777 
419.568352  	52.208536 
421.005230  	51.813810 
422.442108  	52.636319 
423.878986  	51.720050 
425.315863  	51.675799 
426.752741  	51.921510 
428.189619  	51.332436 
429.626497  	51.662942 
431.063375  	51.019490 
432.500253  	49.638563 
433.937131  	49.862397 
435.374009  	50.033079 
436.810887  	50.611735 
438.247765  	50.895132 
439.684643  	49.656284 
441.121521  	48.999194 
442.558398  	48.738433 
443.995276  	48.867795 
445.432154  	49.714947 
446.869032  	49.302534 
448.305910  	49.128812 
449.742788  	49.558293 
451.179666  	49.274810 
452.616544  	50.309949 
454.053422  	51.354063 
455.490300  	51.145122 
456.927178  	51.291725 
458.364056  	50.718452 
459.800933  	50.832475 
461.237811  	52.041178 
462.674689  	51.862406 
464.111567  	51.961883 
465.548445  	53.174308 
466.985323  	53.736406 
468.422201  	54.465203 
469.859079  	55.362263 
471.295957  	56.179371 
472.732835  	57.325576 
474.169713  	57.973029 
475.606591  	59.055240 
477.043469  	60.913520 
478.480346  	62.059995 
479.917224  	62.991636 
481.354102  	64.626408 
482.790980  	66.407795 
484.227858  	67.802992 
485.664736  	68.934135 
487.101614  	70.162699 
488.538492  	71.306604 
489.975370  	72.497989 
491.412248  	73.646013 
492.849126  	74.098046 
494.286004  	74.960889 
495.722881  	76.520934 
497.159759  	77.299245 
498.596637  	77.849840 
500.033515  	78.729196 
501.470393  	79.133738 
502.907271  	79.485429 
504.344149  	80.041257 
505.781027  	80.535467 
507.217905  	81.193033 
508.654783  	81.652065 
510.091661  	81.935488 
511.528539  	82.201532 
512.965416  	82.454064 
514.402294  	82.935096 
515.839172  	83.000124 
517.276050  	82.769934 
518.712928  	83.267628 
520.149806  	83.649264 
521.586684  	83.574080 
523.023562  	83.497957 
524.460440  	83.123402 
525.897318  	83.030955 
527.334196  	83.357998 
528.771074  	83.145559 
530.207951  	82.883616 
531.644829  	83.025019 
533.081707  	83.162827 
534.518585  	83.164062 
535.955463  	83.041756 
537.392341  	83.060134 
538.829219  	83.198514 
540.266097  	83.094017 
541.702975  	82.997805 
543.139853  	83.029503 
544.576731  	83.023702 
546.013609  	83.059741 
547.450486  	83.064171 
548.887364  	83.066574 
550.324242  	83.140951 
551.761120  	83.260919 
553.197998  	83.390323 
554.634876  	83.251142 
556.071754  	83.085381 
557.508632  	83.371216 
558.945510  	83.720426 
560.382388  	83.807408 
561.819266  	83.755889 
563.256144  	83.774285 
564.693021  	84.068912 
566.129899  	84.271933 
567.566777  	84.293305 
569.003655  	84.487691 
570.440533  	84.484551 
571.877411  	84.358273 
573.314289  	84.623961 
574.751167  	84.828274 
576.188045  	84.812072 
577.624923  	85.015856 
579.061801  	85.219591 
580.498679  	85.226030 
581.935556  	85.281946 
583.372434  	85.493503 
584.809312  	85.713311 
586.246190  	85.746384 
587.683068  	85.715817 
589.119946  	85.875012 
590.556824  	86.135614 
591.993702  	86.294771 
593.430580  	86.373829 
594.867458  	86.489003 
596.304336  	86.612157 
597.741214  	86.698477 
599.178091  	86.786591 
600.614969  	86.866545 
602.051847  	86.996828 
603.488725  	87.192140 
604.925603  	87.276625 
606.362481  	87.327007 
607.799359  	87.417941 
609.236237  	87.520024 
610.673115  	87.663084 
612.109993  	87.840557 
613.546871  	87.958402 
614.983749  	87.933983 
616.420626  	87.898268 
617.857504  	87.975048 
619.294382  	88.075258 
620.731260  	88.058754 
622.168138  	88.195608 
623.605016  	88.336149 
625.041894  	88.295882 
626.478772  	88.227431 
627.915650  	88.274358 
629.352528  	88.263121 
630.789406  	88.247651 
632.226284  	88.320560 
633.663161  	88.309225 
635.100039  	88.321497 
636.536917  	88.443474 
637.973795  	88.479130 
639.410673  	88.431532 
640.847551  	88.528018 
642.284429  	88.605958 
643.721307  	88.550493 
645.158185  	88.572960 
646.595063  	88.592789 
648.031941  	88.520621 
649.468819  	88.533816 
650.905696  	88.552437 
652.342574  	88.539576 
653.779452  	88.609321 
655.216330  	88.678859 
656.653208  	88.766008 
658.090086  	88.781105 
659.526964  	88.696079 
660.963842  	88.629755 
662.400720  	88.731672 
663.837598  	88.842613 
665.274476  	88.876703 
666.711354  	88.856075 
668.148231  	88.816984 
669.585109  	88.877731 
671.021987  	88.832988 
672.458865  	88.788881 
673.895743  	88.726021 
675.332621  	88.667994 
676.769499  	88.720114 
678.206377  	88.779120 
679.643255  	88.754135 
681.080133  	88.771666 
682.517011  	88.806756 
683.953889  	88.805255 
685.390766  	88.822325 
686.827644  	88.886754 
688.264522  	88.942207 
689.701400  	88.951909 
691.138278  	88.910916 
692.575156  	88.899923 
694.012034  	88.907336 
695.448912  	88.952503 
696.885790  	88.937216 
698.322668  	88.845768 
699.759546  	88.865292 
701.196424  	88.939236 
702.633301  	88.939341 
704.070179  	88.969694 
705.507057  	88.991239 
706.943935  	88.949360 
708.380813  	88.912796 
709.817691  	88.924267 
711.254569  	88.940757 
712.691447  	88.965914 
714.128325  	88.956672 
715.565203  	88.952711 
717.002081  	88.931148 
718.438959  	88.869436 
719.875837  	88.834708 
721.312714  	88.779374 
722.749592  	88.742294 
724.186470  	88.729621 
725.623348  	88.685302 
727.060226  	88.667898 
728.497104  	88.673859 
729.933982  	88.572469 
731.370860  	88.515579 
732.807738  	88.596038 
734.244616  	88.563505 
735.681494  	88.527090 
737.118372  	88.505729 
738.555249  	88.468135 
739.992127  	88.439779 
741.429005  	88.366395 
742.865883  	88.286771 
744.302761  	88.187668 
745.739639  	88.079688 
747.176517  	88.079865 
748.613395  	88.153476 
750.050273  	88.191557 
751.487151  	88.143617 
752.924029  	87.989610 
754.360907  	87.872247 
755.797784  	87.892621 
757.234662  	87.907506 
758.671540  	87.852141 
760.108418  	87.805407 
761.545296  	87.766866 
762.982174  	87.673093 
764.419052  	87.519981 
765.855930  	87.372985 
767.292808  	87.184097 
768.729686  	86.857209 
770.166564  	86.515917 
771.603442  	86.226899 
773.040319  	85.862944 
774.477197  	85.457599 
775.914075  	85.009247 
777.350953  	84.409830 
778.787831  	83.856842 
780.224709  	83.519445 
781.661587  	83.247763 
783.098465  	82.973698 
784.535343  	82.754699 
785.972221  	82.592150 
787.409099  	82.488450 
788.845977  	82.395823 
790.282854  	82.215126 
791.719732  	82.016320 
793.156610  	81.927136 
794.593488  	81.911134 
796.030366  	81.942754 
797.467244  	82.035353 
798.904122  	82.101677 
800.341000  	82.135382 
801.777878  	82.240237 
803.214756  	82.399694 
804.651634  	82.512102 
806.088512  	82.623932 
807.525389  	82.854113 
808.962267  	83.118730 
810.399145  	83.330489 
811.836023  	83.605521 
813.272901  	83.949592 
814.709779  	84.223328 
816.146657  	84.430531 
817.583535  	84.724219 
819.020413  	85.090376 
820.457291  	85.311910 
821.894169  	85.518271 
823.331047  	85.902663 
824.767924  	86.200554 
826.204802  	86.436914 
827.641680  	86.826437 
829.078558  	87.140583 
830.515436  	87.384038 
831.952314  	87.711529 
833.389192  	88.000937 
834.826070  	88.278801 
836.262948  	88.508945 
837.699826  	88.659455 
839.136704  	88.960461 
840.573582  	89.320430 
842.010459  	89.549092 
843.447337  	89.772395 
844.884215  	90.028152 
846.321093  	90.233730 
847.757971  	90.353325 
849.194849  	90.443268 
850.631727  	90.538929 
852.068605  	90.564550 
853.505483  	90.634231 
854.942361  	90.800628 
856.379239  	90.848281 
857.816117  	90.824358 
859.252994  	90.850580 
860.689872  	90.880693 
862.126750  	90.938981 
863.563628  	90.927356 
865.000506  	90.796063 
866.437384  	90.678864 
867.874262  	90.558236 
869.311140  	90.491518 
870.748018  	90.548213 
872.184896  	90.526514 
873.621774  	90.382771 
875.058652  	90.244805 
876.495529  	90.122335 
877.932407  	90.001443 
879.369285  	89.885429 
880.806163  	89.794809 
882.243041  	89.663095 
883.679919  	89.434586 
885.116797  	89.260972 
886.553675  	89.143528 
887.990553  	88.974645 
889.427431  	88.824356 
890.864309  	88.635857 
892.301187  	88.371000 
893.738064  	88.149424 
895.174942  	87.917437 
896.611820  	87.674090 
898.048698  	87.497626 
899.485576  	87.277337 
900.922454  	87.006786 
902.359332  	86.796072 
903.796210  	86.604453 
905.233088  	86.371366 
906.669966  	86.173127 
908.106844  	86.049723 
909.543722  	85.826185 
910.980599  	85.502279 
912.417477  	85.289381 
913.854355  	85.067320 
915.291233  	84.753608 
916.728111  	84.521348 
918.164989  	84.303230 
919.601867  	84.051734 
921.038745  	83.790858 
922.475623  	83.443663 
923.912501  	83.152913 
925.349379  	82.944763 
926.786257  	82.670363 
928.223134  	82.401017 
929.660012  	82.119728 
931.096890  	81.828273 
932.533768  	81.611609 
933.970646  	81.347722 
935.407524  	81.077636 
936.844402  	80.879402 
938.281280  	80.673915 
939.718158  	80.522233 
941.155036  	80.345554 
942.591914  	80.092948 
944.028792  	79.899056 
945.465670  	79.672899 
946.902547  	79.444915 
948.339425  	79.322964 
949.776303  	79.178959 
951.213181  	79.009668 
952.650059  	78.803912 
954.086937  	78.613111 
955.523815  	78.592497 
956.960693  	78.552460 
958.397571  	78.424503 
959.834449  	78.316451 
961.271327  	78.159830 
962.708205  	78.074367 
964.145082  	78.071341 
965.581960  	78.042310 
967.018838  	78.112381 
968.455716  	78.200641 
969.892594  	78.262062 
971.329472  	78.398016 
972.766350  	78.545811 
974.203228  	78.814405 
975.640106  	79.178199 
977.076984  	79.489499 
978.513862  	79.898768 
979.950740  	80.345005 
981.387617  	80.743799 
982.824495  	81.187788 
984.261373  	81.568428 
985.698251  	81.888724 
987.135129  	82.160359 
988.572007  	82.324414 
990.008885  	82.460634 
991.445763  	82.442430 
992.882641  	82.254675 
994.319519  	82.049986 
995.756397  	81.695856 
997.193275  	81.235541 
998.630152  	80.749438 
1000.067030  	80.144498 
1001.503908  	79.540980 
1002.940786  	78.823449 
1004.377664  	77.945459 
1005.814542  	77.193734 
1007.251420  	76.372257 
1008.688298  	75.418248 
1010.125176  	74.552715 
1011.562054  	73.603834 
1012.998932  	72.648732 
1014.435810  	71.737428 
1015.872687  	70.714992 
1017.309565  	69.768182 
1018.746443  	68.782157 
1020.183321  	67.737544 
1021.620199  	66.899776 
1023.057077  	65.995301 
1024.493955  	65.019181 
1025.930833  	64.158645 
1027.367711  	63.294930 
1028.804589  	62.567123 
1030.241467  	61.852908 
1031.678345  	61.090035 
1033.115222  	60.517603 
1034.552100  	59.889945 
1035.988978  	59.298393 
1037.425856  	58.882354 
1038.862734  	58.323922 
1040.299612  	57.866971 
1041.736490  	57.561270 
1043.173368  	57.200533 
1044.610246  	56.957205 
1046.047124  	56.662506 
1047.484002  	56.398591 
1048.920880  	56.309846 
1050.357757  	56.098522 
1051.794635  	55.972586 
1053.231513  	55.923840 
1054.668391  	55.788145 
1056.105269  	55.842598 
1057.542147  	55.843980 
1058.979025  	55.790368 
1060.415903  	55.911255 
1061.852781  	55.911009 
1063.289659  	55.966642 
1064.726537  	56.111734 
1066.163415  	56.155847 
1067.600292  	56.385654 
1069.037170  	56.582332 
1070.474048  	56.679807 
1071.910926  	56.935021 
1073.347804  	57.102395 
1074.784682  	57.313365 
1076.221560  	57.571061 
1077.658438  	57.675711 
1079.095316  	57.985531 
1080.532194  	58.338069 
1081.969072  	58.555253 
1083.405950  	58.875040 
1084.842827  	59.134037 
1086.279705  	59.435047 
1087.716583  	59.797907 
1089.153461  	60.047301 
1090.590339  	60.447323 
1092.027217  	60.811008 
1093.464095  	61.040915 
1094.900973  	61.411636 
1096.337851  	61.683383 
1097.774729  	61.940708 
1099.211607  	62.293999 
1100.648485  	62.483095 
1102.085362  	62.720661 
1103.522240  	62.972454 
1104.959118  	63.105485 
1106.395996  	63.335588 
1107.832874  	63.527309 
1109.269752  	63.741652 
1110.706630  	64.080238 
1112.143508  	64.339425 
1113.580386  	64.676822 
1115.017264  	65.072839 
1116.454142  	65.445545 
1117.891020  	65.952577 
1119.327897  	66.414168 
1120.764775  	66.871955 
1122.201653  	67.424774 
1123.638531  	67.907221 
1125.075409  	68.456531 
1126.512287  	68.988181 
1127.949165  	69.422997 
1129.386043  	69.985998 
1130.822921  	70.494425 
1132.259799  	70.938973 
1133.696677  	71.449171 
1135.133555  	71.839462 
1136.570432  	72.254596 
1138.007310  	72.732018 
1139.444188  	73.104524 
1140.881066  	73.488473 
1142.317944  	73.818710 
1143.754822  	74.129457 
1145.191700  	74.542353 
1146.628578  	74.854939 
1148.065456  	75.117500 
1149.502334  	75.411778 
1150.939212  	75.656789 
1152.376090  	75.933939 
1153.812967  	76.159069 
1155.249845  	76.361113 
1156.686723  	76.655461 
1158.123601  	76.858946 
1159.560479  	77.044837 
1160.997357  	77.299812 
1162.434235  	77.492543 
1163.871113  	77.719978 
1165.307991  	77.946835 
1166.744869  	78.118612 
1168.181747  	78.347434 
1169.618625  	78.546189 
1171.055502  	78.742164 
1172.492380  	78.979943 
1173.929258  	79.170135 
1175.366136  	79.401354 
1176.803014  	79.612870 
1178.239892  	79.754517 
1179.676770  	79.971450 
1181.113648  	80.184319 
1182.550526  	80.378316 
1183.987404  	80.597790 
1185.424282  	80.768860 
1186.861160  	80.981703 
1188.298038  	81.201682 
1189.734915  	81.375289 
1191.171793  	81.625441 
1192.608671  	81.849640 
1194.045549  	82.025989 
1195.482427  	82.259560 
1196.919305  	82.464109 
1198.356183  	82.659284 
1199.793061  	82.868555 
1201.229939  	83.064675 
1202.666817  	83.294837 
1204.103695  	83.481499 
1205.540573  	83.669258 
1206.977450  	83.929938 
1208.414328  	84.137006 
1209.851206  	84.352956 
1211.288084  	84.610807 
1212.724962  	84.824502 
1214.161840  	85.077995 
1215.598718  	85.332771 
1217.035596  	85.558474 
1218.472474  	85.835204 
1219.909352  	86.080364 
1221.346230  	86.317414 
1222.783108  	86.594959 
1224.219985  	86.838676 
1225.656863  	87.112498 
1227.093741  	87.407785 
1228.530619  	87.680511 
1229.967497  	88.009980 
1231.404375  	88.333625 
1232.841253  	88.625389 
1234.278131  	88.960219 
1235.715009  	89.279392 
1237.151887  	89.571422 
1238.588765  	89.887852 
1240.025643  	90.218536 
1241.462520  	90.564867 
1242.899398  	90.916961 
1244.336276  	91.268389 
1245.773154  	91.627170 
1247.210032  	91.976318 
1248.646910  	92.316467 
1250.083788  	92.656335 
1251.520666  	92.996919 
1252.957544  	93.328819 
1254.394422  	93.629541 
1255.831300  	93.906491 
1257.268178  	94.173140 
1258.705055  	94.431045 
1260.141933  	94.685726 
1261.578811  	94.916056 
1263.015689  	95.104432 
1264.452567  	95.266225 
1265.889445  	95.414638 
1267.326323  	95.562341 
1268.763201  	95.713247 
1270.200079  	95.849100 
1271.636957  	95.968607 
1273.073835  	96.088287 
1274.510713  	96.200073 
1275.947590  	96.279824 
1277.384468  	96.332633 
1278.821346  	96.390089 
1280.258224  	96.458852 
1281.695102  	96.525707 
1283.131980  	96.601731 
1284.568858  	96.683404 
1286.005736  	96.728972 
1287.442614  	96.739150 
1288.879492  	96.765546 
1290.316370  	96.823248 
1291.753248  	96.894883 
1293.190125  	96.959592 
1294.627003  	96.981894 
1296.063881  	96.979403 
1297.500759  	97.014296 
1298.937637  	97.069985 
1300.374515  	97.100051 
1301.811393  	97.113256 
1303.248271  	97.107335 
1304.685149  	97.119408 
1306.122027  	97.179655 
1307.558905  	97.242084 
1308.995783  	97.270838 
1310.432660  	97.270519 
1311.869538  	97.251353 
1313.306416  	97.249752 
1314.743294  	97.272772 
1316.180172  	97.289229 
1317.617050  	97.284772 
1319.053928  	97.296366 
1320.490806  	97.315865 
1321.927684  	97.338849 
1323.364562  	97.356504 
1324.801440  	97.379191 
1326.238318  	97.418494 
1327.675195  	97.438366 
1329.112073  	97.414584 
1330.548951  	97.403023 
1331.985829  	97.431470 
1333.422707  	97.456743 
1334.859585  	97.458805 
1336.296463  	97.432214 
1337.733341  	97.404463 
1339.170219  	97.397966 
1340.607097  	97.431635 
1342.043975  	97.467535 
1343.480853  	97.493387 
1344.917730  	97.524151 
1346.354608  	97.556603 
1347.791486  	97.537439 
1349.228364  	97.513508 
1350.665242  	97.509844 
1352.102120  	97.504587 
1353.538998  	97.507391 
1354.975876  	97.531802 
1356.412754  	97.549579 
1357.849632  	97.541054 
1359.286510  	97.512334 
1360.723388  	97.490152 
1362.160265  	97.499716 
1363.597143  	97.515189 
1365.034021  	97.531820 
1366.470899  	97.554482 
1367.907777  	97.541799 
1369.344655  	97.516723 
1370.781533  	97.504205 
1372.218411  	97.525429 
1373.655289  	97.540117 
1375.092167  	97.560659 
1376.529045  	97.608701 
1377.965923  	97.637935 
1379.402800  	97.602881 
1380.839678  	97.560461 
1382.276556  	97.563605 
1383.713434  	97.555090 
1385.150312  	97.527559 
1386.587190  	97.522264 
1388.024068  	97.569377 
1389.460946  	97.603517 
1390.897824  	97.590786 
1392.334702  	97.596540 
1393.771580  	97.615230 
1395.208458  	97.552054 
1396.645335  	97.499960 
1398.082213  	97.525699 
1399.519091  	97.602885 
1400.955969  	97.653523 
1402.392847  	97.640790 
1403.829725  	97.590633 
1405.266603  	97.558652 
1406.703481  	97.571216 
1408.140359  	97.602069 
1409.577237  	97.600394 
1411.014115  	97.582151 
1412.450993  	97.594357 
1413.887871  	97.564028 
1415.324748  	97.496282 
1416.761626  	97.488116 
1418.198504  	97.533911 
1419.635382  	97.541255 
1421.072260  	97.521765 
1422.509138  	97.481439 
1423.946016  	97.467125 
1425.382894  	97.487416 
1426.819772  	97.531129 
1428.256650  	97.542727 
1429.693528  	97.536255 
1431.130406  	97.571294 
1432.567283  	97.570271 
1434.004161  	97.501065 
1435.441039  	97.500276 
1436.877917  	97.546241 
1438.314795  	97.587920 
1439.751673  	97.584799 
1441.188551  	97.576484 
1442.625429  	97.534390 
1444.062307  	97.518189 
1445.499185  	97.537189 
1446.936063  	97.557008 
1448.372941  	97.538539 
1449.809818  	97.537131 
1451.246696  	97.557479 
1452.683574  	97.557941 
1454.120452  	97.508652 
1455.557330  	97.522327 
1456.994208  	97.544989 
1458.431086  	97.598819 
1459.867964  	97.632050 
1461.304842  	97.652470 
1462.741720  	97.668405 
1464.178598  	97.679300 
1465.615476  	97.666144 
1467.052353  	97.633291 
1468.489231  	97.608510 
1469.926109  	97.640139 
1471.362987  	97.673537 
1472.799865  	97.613721 
1474.236743  	97.607766 
1475.673621  	97.620441 
1477.110499  	97.646144 
1478.547377  	97.698837 
1479.984255  	97.711583 
1481.421133  	97.664489 
1482.858011  	97.567953 
1484.294888  	97.544078 
1485.731766  	97.595328 
1487.168644  	97.618302 
1488.605522  	97.577309 
1490.042400  	97.554118 
1491.479278  	97.568455 
1492.916156  	97.589851 
1494.353034  	97.632347 
1495.789912  	97.655952 
1497.226790  	97.617891 
1498.663668  	97.585689 
1500.100546  	97.579094 
1501.537423  	97.575713 
1502.974301  	97.540392 
1504.411179  	97.535661 
1505.848057  	97.525395 
1507.284935  	97.346046 
1508.721813  	97.464279 
1510.158691  	97.574760 
1511.595569  	97.627566 
1513.032447  	97.639378 
1514.469325  	97.627512 
1515.906203  	97.550290 
1517.343081  	97.437703 
1518.779958  	97.505339 
1520.216836  	97.591884 
1521.653714  	97.592028 
1523.090592  	97.595091 
1524.527470  	97.576790 
1525.964348  	97.535348 
1527.401226  	97.529205 
1528.838104  	97.595281 
1530.274982  	97.621872 
1531.711860  	97.538004 
1533.148738  	97.473002 
1534.585616  	97.467228 
1536.022493  	97.423225 
1537.459371  	97.445346 
1538.896249  	97.501412 
1540.333127  	97.467184 
1541.770005  	97.612769 
1543.206883  	97.660387 
1544.643761  	97.541076 
1546.080639  	97.519772 
1547.517517  	97.639476 
1548.954395  	97.698385 
1550.391273  	97.597058 
1551.828151  	97.514954 
1553.265028  	97.572641 
1554.701906  	97.586915 
1556.138784  	97.570144 
1557.575662  	97.678077 
1559.012540  	97.658102 
1560.449418  	97.664453 
1561.886296  	97.649853 
1563.323174  	97.665264 
1564.760052  	97.672541 
1566.196930  	97.616873 
1567.633808  	97.599824 
1569.070686  	97.585380 
1570.507563  	97.601686 
1571.944441  	97.672493 
1573.381319  	97.676364 
1574.818197  	97.668517 
1576.255075  	97.659006 
1577.691953  	97.638516 
1579.128831  	97.618080 
1580.565709  	97.610016 
1582.002587  	97.618717 
1583.439465  	97.610571 
1584.876343  	97.508690 
1586.313221  	97.406666 
1587.750098  	97.408049 
1589.186976  	97.430182 
1590.623854  	97.478214 
1592.060732  	97.480752 
1593.497610  	97.371206 
1594.934488  	97.295063 
1596.371366  	97.339904 
1597.808244  	97.382162 
1599.245122  	97.346384 
1600.682000  	97.198972 
1602.118878  	97.043361 
1603.555756  	97.018155 
1604.992633  	97.075350 
1606.429511  	97.089294 
1607.866389  	97.010923 
1609.303267  	96.902151 
1610.740145  	96.859924 
1612.177023  	96.810636 
1613.613901  	96.700263 
1615.050779  	96.645807 
1616.487657  	96.626314 
1617.924535  	96.590708 
1619.361413  	96.512616 
1620.798291  	96.438252 
1622.235168  	96.352680 
1623.672046  	96.266274 
1625.108924  	96.270355 
1626.545802  	96.272035 
1627.982680  	96.257820 
1629.419558  	96.225874 
1630.856436  	96.194414 
1632.293314  	96.090445 
1633.730192  	96.074286 
1635.167070  	96.146739 
1636.603948  	96.125801 
1638.040826  	96.091216 
1639.477703  	96.116081 
1640.914581  	96.240996 
1642.351459  	96.318646 
1643.788337  	96.342107 
1645.225215  	96.320060 
1646.662093  	96.164174 
1648.098971  	96.221209 
1649.535849  	96.475816 
1650.972727  	96.659457 
1652.409605  	96.831631 
1653.846483  	96.786761 
1655.283361  	96.842001 
1656.720239  	96.780936 
1658.157116  	96.811952 
1659.593994  	96.815218 
1661.030872  	96.801904 
1662.467750  	96.792526 
1663.904628  	96.857959 
1665.341506  	96.928632 
1666.778384  	96.965268 
1668.215262  	96.994147 
1669.652140  	97.009931 
1671.089018  	97.000394 
1672.525896  	97.040225 
1673.962774  	97.133922 
1675.399651  	97.218794 
1676.836529  	97.209899 
1678.273407  	97.163353 
1679.710285  	97.118369 
1681.147163  	97.077997 
1682.584041  	97.191708 
1684.020919  	97.368704 
1685.457797  	97.434292 
1686.894675  	97.380839 
1688.331553  	97.409063 
1689.768431  	97.470755 
1691.205309  	97.471288 
1692.642186  	97.463825 
1694.079064  	97.470691 
1695.515942  	97.399771 
1696.952820  	97.393111 
1698.389698  	97.584734 
1699.826576  	97.790190 
1701.263454  	97.643409 
1702.700332  	97.562029 
1704.137210  	97.643716 
1705.574088  	97.719693 
1707.010966  	97.706477 
1708.447844  	97.722005 
1709.884721  	97.664472 
1711.321599  	97.618913 
1712.758477  	97.702843 
1714.195355  	97.720598 
1715.632233  	97.688049 
1717.069111  	97.778029 
1718.505989  	97.808701 
1719.942867  	97.780410 
1721.379745  	97.828582 
1722.816623  	97.877609 
1724.253501  	97.784856 
1725.690379  	97.718524 
1727.127256  	97.772418 
1728.564134  	97.785966 
1730.001012  	97.700395 
1731.437890  	97.707436 
1732.874768  	97.840901 
1734.311646  	97.857683 
1735.748524  	97.807611 
1737.185402  	97.820389 
1738.622280  	97.877315 
1740.059158  	97.855207 
1741.496036  	97.815367 
1742.932914  	97.830058 
1744.369791  	97.815450 
1745.806669  	97.808913 
1747.243547  	97.793189 
1748.680425  	97.775420 
1750.117303  	97.845296 
1751.554181  	97.912115 
1752.991059  	97.891644 
1754.427937  	97.918958 
1755.864815  	97.977632 
1757.301693  	97.888933 
1758.738571  	97.795084 
1760.175449  	97.824772 
1761.612326  	97.846979 
1763.049204  	97.830241 
1764.486082  	97.856110 
1765.922960  	97.897841 
1767.359838  	97.869007 
1768.796716  	97.806489 
1770.233594  	97.804381 
1771.670472  	97.845511 
1773.107350  	97.879660 
1774.544228  	97.891419 
1775.981106  	97.891265 
1777.417984  	97.854742 
1778.854861  	97.800953 
1780.291739  	97.782454 
1781.728617  	97.807004 
1783.165495  	97.824887 
1784.602373  	97.846345 
1786.039251  	97.801791 
1787.476129  	97.739856 
1788.913007  	97.758878 
1790.349885  	97.790745 
1791.786763  	97.731806 
1793.223641  	97.788013 
1794.660519  	97.849433 
1796.097396  	97.766062 
1797.534274  	97.722500 
1798.971152  	97.758678 
1800.408030  	97.784754 
1801.844908  	97.760872 
1803.281786  	97.718459 
1804.718664  	97.768464 
1806.155542  	97.853475 
1807.592420  	97.855356 
1809.029298  	97.873857 
1810.466176  	97.869628 
1811.903054  	97.816093 
1813.339931  	97.819616 
1814.776809  	97.824974 
1816.213687  	97.785531 
1817.650565  	97.764339 
1819.087443  	97.757957 
1820.524321  	97.727200 
1821.961199  	97.774414 
1823.398077  	97.858166 
1824.834955  	97.829471 
1826.271833  	97.750931 
1827.708711  	97.762090 
1829.145589  	97.797500 
1830.582466  	97.783037 
1832.019344  	97.840263 
1833.456222  	97.891425 
1834.893100  	97.805574 
1836.329978  	97.653723 
1837.766856  	97.638146 
1839.203734  	97.718184 
1840.640612  	97.793726 
1842.077490  	97.799359 
1843.514368  	97.758315 
1844.951246  	97.725655 
1846.388124  	97.719618 
1847.825001  	97.714299 
1849.261879  	97.727237 
1850.698757  	97.735882 
1852.135635  	97.744779 
1853.572513  	97.805638 
1855.009391  	97.785083 
1856.446269  	97.697212 
1857.883147  	97.657689 
1859.320025  	97.646726 
1860.756903  	97.628473 
1862.193781  	97.629855 
1863.630659  	97.596609 
1865.067536  	97.541299 
1866.504414  	97.571710 
1867.941292  	97.548204 
1869.378170  	97.416424 
1870.815048  	97.550092 
1872.251926  	97.716994 
1873.688804  	97.664758 
1875.125682  	97.619070 
1876.562560  	97.668035 
1877.999438  	97.626107 
1879.436316  	97.636661 
1880.873194  	97.711689 
1882.310072  	97.755397 
1883.746949  	97.798397 
1885.183827  	97.713753 
1886.620705  	97.599963 
1888.057583  	97.681477 
1889.494461  	97.739705 
1890.931339  	97.701095 
1892.368217  	97.724439 
1893.805095  	97.721566 
1895.241973  	97.715646 
1896.678851  	97.711625 
1898.115729  	97.663981 
1899.552607  	97.694425 
1900.989484  	97.755239 
1902.426362  	97.724975 
1903.863240  	97.685520 
1905.300118  	97.699192 
1906.736996  	97.732117 
1908.173874  	97.777835 
1909.610752  	97.751019 
1911.047630  	97.693372 
1912.484508  	97.684288 
1913.921386  	97.673313 
1915.358264  	97.693836 
1916.795142  	97.748118 
1918.232019  	97.782852 
1919.668897  	97.841930 
1921.105775  	97.887282 
1922.542653  	97.845129 
1923.979531  	97.846348 
1925.416409  	97.911973 
1926.853287  	97.932282 
1928.290165  	97.751801 
1929.727043  	97.651496 
1931.163921  	97.843077 
1932.600799  	97.941982 
1934.037677  	97.778952 
1935.474554  	97.782816 
1936.911432  	97.845101 
1938.348310  	97.713744 
1939.785188  	97.732446 
1941.222066  	97.879844 
1942.658944  	97.805983 
1944.095822  	97.722095 
1945.532700  	97.794423 
1946.969578  	97.831748 
1948.406456  	97.866370 
1949.843334  	97.910798 
1951.280212  	97.784320 
1952.717089  	97.594570 
1954.153967  	97.682355 
1955.590845  	97.910394 
1957.027723  	97.978531 
1958.464601  	98.043160 
1959.901479  	98.245491 
1961.338357  	98.269128 
1962.775235  	97.816700 
1964.212113  	97.316456 
1965.648991  	97.405921 
1967.085869  	97.697562 
1968.522747  	97.615452 
1969.959624  	97.638977 
1971.396502  	97.932049 
1972.833380  	98.145436 
1974.270258  	98.387068 
1975.707136  	98.653959 
1977.144014  	98.541260 
1978.580892  	98.047055 
1980.017770  	97.795784 
1981.454648  	98.065500 
1982.891526  	98.371745 
1984.328404  	98.360308 
1985.765282  	98.396097 
1987.202159  	98.588146 
1988.639037  	98.608102 
1990.075915  	98.284285 
1991.512793  	97.922596 
1992.949671  	97.923390 
1994.386549  	98.002003 
1995.823427  	98.059369 
1997.260305  	98.395159 
1998.697183  	98.546202 
2000.134061  	98.175238 
2001.570939  	97.987522 
2003.007817  	98.135613 
2004.444694  	98.225691 
2005.881572  	98.557909 
2007.318450  	98.855044 
2008.755328  	98.534969 
2010.192206  	98.309372 
2011.629084  	98.806617 
2013.065962  	99.386011 
2014.502840  	99.304934 
2015.939718  	98.956082 
2017.376596  	98.828213 
2018.813474  	98.682671 
2020.250352  	98.633546 
2021.687229  	98.945087 
2023.124107  	98.866504 
2024.560985  	98.287136 
2025.997863  	98.281417 
2027.434741  	98.738692 
2028.871619  	98.893322 
2030.308497  	98.740850 
2031.745375  	98.316447 
2033.182253  	98.024490 
2034.619131  	98.439162 
2036.056009  	98.847795 
2037.492887  	98.812911 
2038.929764  	98.722336 
2040.366642  	98.416971 
2041.803520  	98.096779 
2043.240398  	98.272351 
2044.677276  	98.467604 
2046.114154  	98.345844 
2047.551032  	98.358306 
2048.987910  	98.659667 
2050.424788  	98.919022 
2051.861666  	98.846689 
2053.298544  	98.536239 
2054.735422  	98.354786 
2056.172299  	98.299614 
2057.609177  	98.247150 
2059.046055  	98.300507 
2060.482933  	98.397250 
2061.919811  	98.449052 
2063.356689  	98.458425 
2064.793567  	98.301092 
2066.230445  	98.213979 
2067.667323  	98.420845 
2069.104201  	98.530962 
2070.541079  	98.489412 
2071.977957  	98.575106 
2073.414834  	98.549743 
2074.851712  	98.395218 
2076.288590  	98.488198 
2077.725468  	98.723277 
2079.162346  	98.822519 
2080.599224  	98.719631 
2082.036102  	98.423446 
2083.472980  	98.201106 
2084.909858  	98.234743 
2086.346736  	98.295348 
2087.783614  	98.339718 
2089.220492  	98.369898 
2090.657369  	98.209808 
2092.094247  	98.071297 
2093.531125  	98.167583 
2094.968003  	98.192526 
2096.404881  	98.006686 
2097.841759  	97.902745 
2099.278637  	97.972407 
2100.715515  	98.074871 
2102.152393  	98.182896 
2103.589271  	98.192839 
2105.026149  	98.056013 
2106.463027  	98.081095 
2107.899904  	98.187546 
2109.336782  	97.973624 
2110.773660  	97.906787 
2112.210538  	98.253548 
2113.647416  	98.270084 
2115.084294  	97.991702 
2116.521172  	97.949216 
2117.958050  	97.913126 
2119.394928  	97.910317 
2120.831806  	98.047795 
2122.268684  	97.964546 
2123.705562  	97.881110 
2125.142440  	98.056267 
2126.579317  	98.131567 
2128.016195  	98.082717 
2129.453073  	98.016330 
2130.889951  	97.899799 
2132.326829  	97.919970 
2133.763707  	98.011349 
2135.200585  	97.955203 
2136.637463  	97.777519 
2138.074341  	97.684233 
2139.511219  	97.998963 
2140.948097  	98.308696 
2142.384975  	98.012386 
2143.821852  	97.789005 
2145.258730  	98.033942 
2146.695608  	98.186652 
2148.132486  	98.227384 
2149.569364  	98.143324 
2151.006242  	97.808502 
2152.443120  	97.661594 
2153.879998  	97.818558 
2155.316876  	97.942359 
2156.753754  	98.235665 
2158.190632  	98.690694 
2159.627510  	98.689883 
2161.064387  	98.567336 
2162.501265  	99.099338 
2163.938143  	99.433715 
2165.375021  	98.765097 
2166.811899  	98.044897 
2168.248777  	98.100923 
2169.685655  	98.598767 
2171.122533  	98.772079 
2172.559411  	98.457210 
2173.996289  	98.172524 
2175.433167  	97.918460 
2176.870045  	97.737094 
2178.306922  	98.093000 
2179.743800  	98.334721 
2181.180678  	97.847761 
2182.617556  	97.708340 
2184.054434  	98.288289 
2185.491312  	98.512318 
2186.928190  	98.291848 
2188.365068  	98.168724 
2189.801946  	98.099012 
2191.238824  	98.088461 
2192.675702  	98.356904 
2194.112580  	98.555474 
2195.549457  	98.338556 
2196.986335  	98.183145 
2198.423213  	98.372128 
2199.860091  	98.558040 
2201.296969  	98.636882 
2202.733847  	98.702574 
2204.170725  	98.689411 
2205.607603  	98.538204 
2207.044481  	98.399087 
2208.481359  	98.454377 
2209.918237  	98.445219 
2211.355115  	98.366001 
2212.791992  	98.595093 
2214.228870  	98.704251 
2215.665748  	98.350246 
2217.102626  	98.140697 
2218.539504  	98.197360 
2219.976382  	98.192572 
2221.413260  	98.149023 
2222.850138  	98.205508 
2224.287016  	98.393146 
2225.723894  	98.431160 
2227.160772  	98.212154 
2228.597650  	98.185188 
2230.034527  	98.421424 
2231.471405  	98.483723 
2232.908283  	98.236361 
2234.345161  	98.140387 
2235.782039  	98.445719 
2237.218917  	98.511857 
2238.655795  	98.329454 
2240.092673  	98.521096 
2241.529551  	98.564745 
2242.966429  	98.312329 
2244.403307  	98.351273 
2245.840185  	98.283594 
2247.277062  	98.207921 
2248.713940  	98.571463 
2250.150818  	98.682244 
2251.587696  	98.569360 
2253.024574  	98.619815 
2254.461452  	98.635315 
2255.898330  	98.628964 
2257.335208  	98.540261 
2258.772086  	98.374335 
2260.208964  	98.476650 
2261.645842  	98.541193 
2263.082720  	98.418113 
2264.519597  	98.514797 
2265.956475  	98.621873 
2267.393353  	98.549582 
2268.830231  	98.521260 
2270.267109  	98.465204 
2271.703987  	98.412136 
2273.140865  	98.460019 
2274.577743  	98.491024 
2276.014621  	98.484787 
2277.451499  	98.449175 
2278.888377  	98.408885 
2280.325255  	98.423369 
2281.762132  	98.385737 
2283.199010  	98.306922 
2284.635888  	98.288405 
2286.072766  	98.280047 
2287.509644  	98.278076 
2288.946522  	98.278861 
2290.383400  	98.213743 
2291.820278  	98.126091 
2293.257156  	98.075242 
2294.694034  	98.022795 
2296.130912  	98.015656 
2297.567790  	98.058649 
2299.004667  	97.968873 
2300.441545  	97.906165 
2301.878423  	97.865761 
2303.315301  	97.888932 
2304.752179  	97.873568 
2306.189057  	97.794171 
2307.625935  	97.716238 
2309.062813  	97.731091 
2310.499691  	97.792569 
2311.936569  	97.748176 
2313.373447  	97.693410 
2314.810325  	97.719048 
2316.247202  	97.737821 
2317.684080  	97.677347 
2319.120958  	97.560851 
2320.557836  	97.436070 
2321.994714  	97.387185 
2323.431592  	97.427277 
2324.868470  	97.499904 
2326.305348  	97.518232 
2327.742226  	97.435929 
2329.179104  	97.394464 
2330.615982  	97.448833 
2332.052860  	97.473430 
2333.489737  	97.501292 
2334.926615  	97.576992 
2336.363493  	97.575342 
2337.800371  	97.499998 
2339.237249  	97.482934 
2340.674127  	97.536807 
2342.111005  	97.523525 
2343.547883  	97.454339 
2344.984761  	97.451786 
2346.421639  	97.449129 
2347.858517  	97.341690 
2349.295395  	97.274448 
2350.732273  	97.300677 
2352.169150  	97.348068 
2353.606028  	97.416028 
2355.042906  	97.463483 
2356.479784  	97.480165 
2357.916662  	97.506568 
2359.353540  	97.509104 
2360.790418  	97.488093 
2362.227296  	97.518536 
2363.664174  	97.584548 
2365.101052  	97.623309 
2366.537930  	97.699002 
2367.974808  	97.855296 
2369.411685  	97.929574 
2370.848563  	97.887150 
2372.285441  	97.911683 
2373.722319  	97.969103 
2375.159197  	97.993032 
2376.596075  	98.025691 
2378.032953  	98.010369 
2379.469831  	97.945112 
2380.906709  	97.961260 
2382.343587  	98.016783 
2383.780465  	98.023081 
2385.217343  	97.965360 
2386.654220  	97.929436 
2388.091098  	97.950323 
2389.527976  	97.981795 
2390.964854  	97.996772 
2392.401732  	98.036349 
2393.838610  	98.053237 
2395.275488  	98.002387 
2396.712366  	97.939416 
2398.149244  	97.942656 
2399.586122  	97.966737 
2401.023000  	97.929975 
2402.459878  	97.910289 
2403.896755  	97.941919 
2405.333633  	97.959573 
2406.770511  	98.006707 
2408.207389  	98.076951 
2409.644267  	98.108997 
2411.081145  	98.113285 
2412.518023  	98.083306 
2413.954901  	98.071385 
2415.391779  	98.078615 
2416.828657  	98.035550 
2418.265535  	98.055830 
2419.702413  	98.142505 
2421.139290  	98.140977 
2422.576168  	98.089710 
2424.013046  	97.999124 
2425.449924  	97.871684 
2426.886802  	97.866548 
2428.323680  	97.989511 
2429.760558  	98.083939 
2431.197436  	98.006525 
2432.634314  	97.838606 
2434.071192  	97.850494 
2435.508070  	97.940515 
2436.944948  	97.903318 
2438.381825  	97.922659 
2439.818703  	98.028688 
2441.255581  	98.061021 
2442.692459  	98.017676 
2444.129337  	97.925650 
2445.566215  	97.888780 
2447.003093  	97.931623 
2448.439971  	97.929229 
2449.876849  	97.964980 
2451.313727  	98.071876 
2452.750605  	98.085992 
2454.187483  	98.043000 
2455.624360  	98.050585 
2457.061238  	98.037521 
2458.498116  	97.961488 
2459.934994  	97.953585 
2461.371872  	98.041890 
2462.808750  	98.026841 
2464.245628  	97.940855 
2465.682506  	97.970772 
2467.119384  	97.983071 
2468.556262  	97.901844 
2469.993140  	97.906542 
2471.430018  	98.007579 
2472.866895  	98.051536 
2474.303773  	97.975543 
2475.740651  	97.930056 
2477.177529  	98.004332 
2478.614407  	98.015249 
2480.051285  	97.970607 
2481.488163  	98.012694 
2482.925041  	98.037823 
2484.361919  	98.013541 
2485.798797  	97.981015 
2487.235675  	97.933443 
2488.672553  	97.929591 
2490.109430  	97.898936 
2491.546308  	97.868541 
2492.983186  	97.983009 
2494.420064  	98.038475 
2495.856942  	97.938995 
2497.293820  	97.891769 
2498.730698  	97.911118 
2500.167576  	97.970360 
2501.604454  	98.033206 
2503.041332  	98.001367 
2504.478210  	97.954450 
2505.915088  	97.939294 
2507.351965  	97.924542 
2508.788843  	97.939557 
2510.225721  	97.969691 
2511.662599  	98.052844 
2513.099477  	98.145539 
2514.536355  	98.131514 
2515.973233  	98.095441 
2517.410111  	98.034374 
2518.846989  	97.947691 
2520.283867  	98.025846 
2521.720745  	98.138220 
2523.157623  	98.120020 
2524.594500  	98.098810 
2526.031378  	98.031747 
2527.468256  	97.926974 
2528.905134  	97.938164 
2530.342012  	97.984470 
2531.778890  	97.999623 
2533.215768  	97.995526 
2534.652646  	97.952646 
2536.089524  	97.931243 
2537.526402  	97.920094 
2538.963280  	97.953919 
2540.400158  	98.095964 
2541.837035  	98.157012 
2543.273913  	98.090702 
2544.710791  	98.035909 
2546.147669  	97.940277 
2547.584547  	97.894727 
2549.021425  	98.048534 
2550.458303  	98.196838 
2551.895181  	98.159158 
2553.332059  	98.056508 
2554.768937  	98.029500 
2556.205815  	98.048219 
2557.642693  	98.083306 
2559.079570  	98.216828 
2560.516448  	98.318015 
2561.953326  	98.221404 
2563.390204  	98.142584 
2564.827082  	98.168198 
2566.263960  	98.148875 
2567.700838  	98.148234 
2569.137716  	98.171038 
2570.574594  	98.121373 
2572.011472  	98.051432 
2573.448350  	98.011221 
2574.885228  	98.063009 
2576.322105  	98.153516 
2577.758983  	98.135067 
2579.195861  	98.132239 
2580.632739  	98.187667 
2582.069617  	98.181345 
2583.506495  	98.204293 
2584.943373  	98.185960 
2586.380251  	98.068057 
2587.817129  	98.078471 
2589.254007  	98.104807 
2590.690885  	98.046673 
2592.127763  	98.151644 
2593.564641  	98.265235 
2595.001518  	98.194921 
2596.438396  	98.150383 
2597.875274  	98.139861 
2599.312152  	98.125766 
2600.749030  	98.223543 
2602.185908  	98.317301 
2603.622786  	98.269124 
2605.059664  	98.126890 
2606.496542  	98.007677 
2607.933420  	98.048591 
2609.370298  	98.184636 
2610.807176  	98.221485 
2612.244053  	98.181379 
2613.680931  	98.176938 
2615.117809  	98.187358 
2616.554687  	98.157840 
2617.991565  	98.122193 
2619.428443  	98.138193 
2620.865321  	98.179556 
2622.302199  	98.200389 
2623.739077  	98.202318 
2625.175955  	98.190577 
2626.612833  	98.162359 
2628.049711  	98.127060 
2629.486588  	98.132674 
2630.923466  	98.184142 
2632.360344  	98.179794 
2633.797222  	98.109252 
2635.234100  	98.077916 
2636.670978  	98.093870 
2638.107856  	98.101645 
2639.544734  	98.076677 
2640.981612  	98.035698 
2642.418490  	98.039127 
2643.855368  	98.068427 
2645.292246  	98.058995 
2646.729123  	98.049430 
2648.166001  	98.059490 
2649.602879  	98.035367 
2651.039757  	97.996845 
2652.476635  	97.996996 
2653.913513  	98.015336 
2655.350391  	98.021751 
2656.787269  	98.021373 
2658.224147  	98.000431 
2659.661025  	97.971567 
2661.097903  	97.999720 
2662.534781  	98.045785 
2663.971658  	98.016088 
2665.408536  	97.962104 
2666.845414  	97.948936 
2668.282292  	97.948862 
2669.719170  	97.955551 
2671.156048  	97.942804 
2672.592926  	97.886723 
2674.029804  	97.853480 
2675.466682  	97.848885 
2676.903560  	97.824113 
2678.340438  	97.830009 
2679.777316  	97.896370 
2681.214193  	97.949561 
2682.651071  	97.936843 
2684.087949  	97.881918 
2685.524827  	97.856596 
2686.961705  	97.881933 
2688.398583  	97.880235 
2689.835461  	97.848611 
2691.272339  	97.866953 
2692.709217  	97.886690 
2694.146095  	97.842458 
2695.582973  	97.803118 
2697.019851  	97.794278 
2698.456728  	97.793050 
2699.893606  	97.823570 
2701.330484  	97.853108 
2702.767362  	97.844040 
2704.204240  	97.818663 
2705.641118  	97.775087 
2707.077996  	97.741246 
2708.514874  	97.740877 
2709.951752  	97.731369 
2711.388630  	97.739388 
2712.825508  	97.783919 
2714.262386  	97.785801 
2715.699263  	97.752540 
2717.136141  	97.752040 
2718.573019  	97.763781 
2720.009897  	97.751205 
2721.446775  	97.729311 
2722.883653  	97.710042 
2724.320531  	97.687046 
2725.757409  	97.694685 
2727.194287  	97.732231 
2728.631165  	97.720027 
2730.068043  	97.691097 
2731.504921  	97.699706 
2732.941798  	97.681619 
2734.378676  	97.690471 
2735.815554  	97.756633 
2737.252432  	97.736486 
2738.689310  	97.683252 
2740.126188  	97.709317 
2741.563066  	97.719889 
2742.999944  	97.704447 
2744.436822  	97.704666 
2745.873700  	97.675525 
2747.310578  	97.645188 
2748.747456  	97.640689 
2750.184333  	97.647167 
2751.621211  	97.679853 
2753.058089  	97.702637 
2754.494967  	97.676846 
2755.931845  	97.628541 
2757.368723  	97.602233 
2758.805601  	97.617066 
2760.242479  	97.624411 
2761.679357  	97.612364 
2763.116235  	97.626431 
2764.553113  	97.643025 
2765.989991  	97.643804 
2767.426868  	97.629302 
2768.863746  	97.582367 
2770.300624  	97.571371 
2771.737502  	97.620360 
2773.174380  	97.634049 
2774.611258  	97.609454 
2776.048136  	97.615079 
2777.485014  	97.646761 
2778.921892  	97.653415 
2780.358770  	97.620099 
2781.795648  	97.607915 
2783.232526  	97.644006 
2784.669403  	97.663733 
2786.106281  	97.627417 
2787.543159  	97.562665 
2788.980037  	97.533251 
2790.416915  	97.556075 
2791.853793  	97.557705 
2793.290671  	97.529892 
2794.727549  	97.538396 
2796.164427  	97.564159 
2797.601305  	97.552096 
2799.038183  	97.516840 
2800.475061  	97.502908 
2801.911938  	97.504174 
2803.348816  	97.495464 
2804.785694  	97.503512 
2806.222572  	97.511384 
2807.659450  	97.470793 
2809.096328  	97.433154 
2810.533206  	97.418143 
2811.970084  	97.395592 
2813.406962  	97.422703 
2814.843840  	97.487727 
2816.280718  	97.511704 
2817.717596  	97.532483 
2819.154474  	97.570084 
2820.591351  	97.570452 
2822.028229  	97.539472 
2823.465107  	97.506369 
2824.901985  	97.487131 
2826.338863  	97.474817 
2827.775741  	97.448925 
2829.212619  	97.459214 
2830.649497  	97.511938 
2832.086375  	97.518265 
2833.523253  	97.494234 
2834.960131  	97.475189 
2836.397009  	97.407688 
2837.833886  	97.355172 
2839.270764  	97.402166 
2840.707642  	97.465275 
2842.144520  	97.479649 
2843.581398  	97.459009 
2845.018276  	97.433643 
2846.455154  	97.465015 
2847.892032  	97.502737 
2849.328910  	97.449728 
2850.765788  	97.381173 
2852.202666  	97.370488 
2853.639544  	97.374354 
2855.076421  	97.375461 
2856.513299  	97.365713 
2857.950177  	97.335282 
2859.387055  	97.313644 
2860.823933  	97.320870 
2862.260811  	97.345723 
2863.697689  	97.367590 
2865.134567  	97.396550 
2866.571445  	97.410696 
2868.008323  	97.342970 
2869.445201  	97.279780 
2870.882079  	97.327427 
2872.318956  	97.363972 
2873.755834  	97.320632 
2875.192712  	97.300568 
2876.629590  	97.321205 
2878.066468  	97.339623 
2879.503346  	97.344464 
2880.940224  	97.333618 
2882.377102  	97.333957 
2883.813980  	97.342610 
2885.250858  	97.314461 
2886.687736  	97.257290 
2888.124614  	97.237097 
2889.561491  	97.272684 
2890.998369  	97.283825 
2892.435247  	97.241407 
2893.872125  	97.216860 
2895.309003  	97.214427 
2896.745881  	97.203466 
2898.182759  	97.198889 
2899.619637  	97.204838 
2901.056515  	97.244943 
2902.493393  	97.315141 
2903.930271  	97.337253 
2905.367149  	97.296052 
2906.804026  	97.255056 
2908.240904  	97.257851 
2909.677782  	97.269684 
2911.114660  	97.208577 
2912.551538  	97.110900 
2913.988416  	97.093374 
2915.425294  	97.154563 
2916.862172  	97.215913 
2918.299050  	97.218712 
2919.735928  	97.167129 
2921.172806  	97.143221 
2922.609684  	97.166503 
2924.046561  	97.144050 
2925.483439  	97.072033 
2926.920317  	97.086877 
2928.357195  	97.195669 
2929.794073  	97.221825 
2931.230951  	97.127790 
2932.667829  	97.035782 
2934.104707  	97.009595 
2935.541585  	97.058363 
2936.978463  	97.101754 
2938.415341  	97.061168 
2939.852219  	97.042198 
2941.289096  	97.084418 
2942.725974  	97.098320 
2944.162852  	97.104840 
2945.599730  	97.088492 
2947.036608  	96.987414 
2948.473486  	96.901074 
2949.910364  	96.893179 
2951.347242  	96.901691 
2952.784120  	96.936031 
2954.220998  	97.014498 
2955.657876  	97.043455 
2957.094754  	96.970561 
2958.531631  	96.890251 
2959.968509  	96.884833 
2961.405387  	96.944773 
2962.842265  	97.009764 
2964.279143  	96.970454 
2965.716021  	96.857928 
2967.152899  	96.842939 
2968.589777  	96.908103 
2970.026655  	96.955752 
2971.463533  	97.000301 
2972.900411  	96.998174 
2974.337289  	96.915882 
2975.774166  	96.833512 
2977.211044  	96.807525 
2978.647922  	96.828733 
2980.084800  	96.827142 
2981.521678  	96.784247 
2982.958556  	96.797434 
2984.395434  	96.888187 
2985.832312  	96.961378 
2987.269190  	96.909880 
2988.706068  	96.757300 
2990.142946  	96.695161 
2991.579824  	96.735018 
2993.016701  	96.718988 
2994.453579  	96.698137 
2995.890457  	96.745080 
2997.327335  	96.774325 
2998.764213  	96.747049 
3000.201091  	96.710174 
3001.637969  	96.722608 
3003.074847  	96.732682 
3004.511725  	96.657425 
3005.948603  	96.605588 
3007.385481  	96.647460 
3008.822359  	96.687521 
3010.259236  	96.666153 
3011.696114  	96.580786 
3013.132992  	96.563790 
3014.569870  	96.697903 
3016.006748  	96.756588 
3017.443626  	96.658751 
3018.880504  	96.593768 
3020.317382  	96.593999 
3021.754260  	96.592644 
3023.191138  	96.538435 
3024.628016  	96.434694 
3026.064894  	96.433896 
3027.501771  	96.557031 
3028.938649  	96.641767 
3030.375527  	96.633990 
3031.812405  	96.569472 
3033.249283  	96.517963 
3034.686161  	96.517297 
3036.123039  	96.490255 
3037.559917  	96.433841 
3038.996795  	96.414817 
3040.433673  	96.407236 
3041.870551  	96.395508 
3043.307429  	96.415644 
3044.744306  	96.483578 
3046.181184  	96.567989 
3047.618062  	96.564205 
3049.054940  	96.456118 
3050.491818  	96.394769 
3051.928696  	96.396895 
3053.365574  	96.340769 
3054.802452  	96.295858 
3056.239330  	96.363699 
3057.676208  	96.406292 
3059.113086  	96.335995 
3060.549964  	96.259604 
3061.986842  	96.206773 
3063.423719  	96.153541 
3064.860597  	96.166020 
3066.297475  	96.269801 
3067.734353  	96.362338 
3069.171231  	96.354225 
3070.608109  	96.296881 
3072.044987  	96.269694 
3073.481865  	96.262157 
3074.918743  	96.246858 
3076.355621  	96.194158 
3077.792499  	96.126036 
3079.229377  	96.142276 
3080.666254  	96.172398 
3082.103132  	96.110410 
3083.540010  	96.096338 
3084.976888  	96.157222 
3086.413766  	96.148661 
3087.850644  	96.131693 
3089.287522  	96.187068 
3090.724400  	96.219024 
3092.161278  	96.181356 
3093.598156  	96.145055 
3095.035034  	96.162149 
3096.471912  	96.165296 
3097.908789  	96.098153 
3099.345667  	96.042998 
3100.782545  	96.024829 
3102.219423  	95.998180 
3103.656301  	95.997256 
3105.093179  	96.039637 
3106.530057  	96.065138 
3107.966935  	96.025344 
3109.403813  	96.001274 
3110.840691  	96.076485 
3112.277569  	96.070488 
3113.714447  	95.928730 
3115.151324  	95.934265 
3116.588202  	96.038219 
3118.025080  	95.981498 
3119.461958  	95.890554 
3120.898836  	95.878513 
3122.335714  	95.870973 
3123.772592  	95.880139 
3125.209470  	95.874607 
3126.646348  	95.856610 
3128.083226  	95.897014 
3129.520104  	95.912854 
3130.956982  	95.871007 
3132.393859  	95.833787 
3133.830737  	95.771600 
3135.267615  	95.719718 
3136.704493  	95.720549 
3138.141371  	95.725836 
3139.578249  	95.794914 
3141.015127  	95.909834 
3142.452005  	95.876251 
3143.888883  	95.745733 
3145.325761  	95.726076 
3146.762639  	95.748109 
3148.199517  	95.712591 
3149.636394  	95.746919 
3151.073272  	95.832698 
3152.510150  	95.788666 
3153.947028  	95.706813 
3155.383906  	95.734491 
3156.820784  	95.724570 
3158.257662  	95.616015 
3159.694540  	95.594739 
3161.131418  	95.663964 
3162.568296  	95.648766 
3164.005174  	95.584751 
3165.442052  	95.600514 
3166.878929  	95.626255 
3168.315807  	95.603519 
3169.752685  	95.618622 
3171.189563  	95.663849 
3172.626441  	95.663043 
3174.063319  	95.603384 
3175.500197  	95.516288 
3176.937075  	95.481368 
3178.373953  	95.476859 
3179.810831  	95.452666 
3181.247709  	95.497220 
3182.684587  	95.513993 
3184.121464  	95.386058 
3185.558342  	95.332986 
3186.995220  	95.377074 
3188.432098  	95.356437 
3189.868976  	95.392975 
3191.305854  	95.459445 
3192.742732  	95.394961 
3194.179610  	95.310415 
3195.616488  	95.251057 
3197.053366  	95.181496 
3198.490244  	95.201685 
3199.927122  	95.277937 
3201.363999  	95.268779 
3202.800877  	95.208502 
3204.237755  	95.254484 
3205.674633  	95.376928 
3207.111511  	95.349191 
3208.548389  	95.188537 
3209.985267  	95.070813 
3211.422145  	94.990126 
3212.859023  	94.970937 
3214.295901  	95.064634 
3215.732779  	95.156349 
3217.169657  	95.152209 
3218.606534  	95.078834 
3220.043412  	95.031998 
3221.480290  	95.037377 
3222.917168  	95.044092 
3224.354046  	95.092157 
3225.790924  	95.110916 
3227.227802  	95.050593 
3228.664680  	95.078099 
3230.101558  	95.074837 
3231.538436  	94.941010 
3232.975314  	94.950104 
3234.412192  	95.028371 
3235.849069  	95.028592 
3237.285947  	95.121496 
3238.722825  	95.162378 
3240.159703  	95.050445 
3241.596581  	95.044655 
3243.033459  	95.128163 
3244.470337  	95.150290 
3245.907215  	95.104615 
3247.344093  	95.004990 
3248.780971  	94.942835 
3250.217849  	94.925986 
3251.654727  	94.905190 
3253.091604  	94.944004 
3254.528482  	95.024902 
3255.965360  	95.106329 
3257.402238  	95.167585 
3258.839116  	95.091956 
3260.275994  	94.986183 
3261.712872  	95.080922 
3263.149750  	95.180998 
3264.586628  	95.078913 
3266.023506  	95.041165 
3267.460384  	95.141963 
3268.897262  	95.086478 
3270.334139  	94.920878 
3271.771017  	94.842869 
3273.207895  	94.847317 
3274.644773  	95.008996 
3276.081651  	95.184049 
3277.518529  	95.105823 
3278.955407  	95.013725 
3280.392285  	95.018487 
3281.829163  	94.918153 
3283.266041  	94.881636 
3284.702919  	94.989800 
3286.139797  	95.083709 
3287.576674  	95.200386 
3289.013552  	95.218074 
3290.450430  	95.085977 
3291.887308  	95.088497 
3293.324186  	95.157334 
3294.761064  	95.100268 
3296.197942  	95.049390 
3297.634820  	95.019419 
3299.071698  	94.981404 
3300.508576  	94.996320 
3301.945454  	94.986091 
3303.382332  	94.985163 
3304.819210  	95.109383 
3306.256087  	95.217778 
3307.692965  	95.188484 
3309.129843  	95.110571 
3310.566721  	95.037192 
3312.003599  	94.993573 
3313.440477  	95.027718 
3314.877355  	95.051084 
3316.314233  	94.992254 
3317.751111  	95.013818 
3319.187989  	95.126044 
3320.624867  	95.082062 
3322.061745  	94.963941 
3323.498622  	95.021926 
3324.935500  	95.146040 
3326.372378  	95.219770 
3327.809256  	95.257737 
3329.246134  	95.175154 
3330.683012  	95.070780 
3332.119890  	95.068612 
3333.556768  	95.043884 
3334.993646  	95.029444 
3336.430524  	95.096919 
3337.867402  	95.102580 
3339.304280  	95.026438 
3340.741157  	94.927889 
3342.178035  	94.924228 
3343.614913  	95.159703 
3345.051791  	95.350103 
3346.488669  	95.250689 
3347.925547  	95.088113 
3349.362425  	94.960983 
3350.799303  	94.930126 
3352.236181  	95.064809 
3353.673059  	95.066753 
3355.109937  	94.916191 
3356.546815  	94.888045 
3357.983692  	94.858581 
3359.420570  	94.777959 
3360.857448  	94.786937 
3362.294326  	94.773833 
3363.731204  	94.755534 
3365.168082  	94.846295 
3366.604960  	94.910047 
3368.041838  	94.899432 
3369.478716  	94.925818 
3370.915594  	94.981300 
3372.352472  	94.989516 
3373.789350  	94.938662 
3375.226227  	94.887458 
3376.663105  	94.895031 
3378.099983  	94.916983 
3379.536861  	94.859503 
3380.973739  	94.811202 
3382.410617  	94.879968 
3383.847495  	94.879577 
3385.284373  	94.778966 
3386.721251  	94.823104 
3388.158129  	94.916264 
3389.595007  	94.899166 
3391.031885  	94.881958 
3392.468762  	94.877905 
3393.905640  	94.896216 
3395.342518  	94.927930 
3396.779396  	94.885451 
3398.216274  	94.925200 
3399.653152  	95.055306 
3401.090030  	95.026237 
3402.526908  	94.921782 
3403.963786  	94.902893 
3405.400664  	94.956283 
3406.837542  	95.067732 
3408.274420  	95.101751 
3409.711297  	95.065536 
3411.148175  	95.115177 
3412.585053  	95.115661 
3414.021931  	94.980960 
3415.458809  	94.898491 
3416.895687  	94.913923 
3418.332565  	94.968939 
3419.769443  	95.025850 
3421.206321  	94.985419 
3422.643199  	94.891688 
3424.080077  	94.943659 
3425.516955  	95.092275 
3426.953832  	95.101271 
3428.390710  	94.980457 
3429.827588  	94.932241 
3431.264466  	95.011099 
3432.701344  	95.103376 
3434.138222  	95.116233 
3435.575100  	95.097888 
3437.011978  	95.072901 
3438.448856  	95.005662 
3439.885734  	95.013197 
3441.322612  	95.107998 
3442.759490  	95.113464 
3444.196367  	95.068878 
3445.633245  	95.062268 
3447.070123  	95.085013 
3448.507001  	95.207459 
3449.943879  	95.298933 
3451.380757  	95.230697 
3452.817635  	95.158822 
3454.254513  	95.177904 
3455.691391  	95.229727 
3457.128269  	95.214919 
3458.565147  	95.068996 
3460.002025  	94.939033 
3461.438902  	94.985265 
3462.875780  	95.150171 
3464.312658  	95.252006 
3465.749536  	95.209522 
3467.186414  	95.205489 
3468.623292  	95.340179 
3470.060170  	95.452593 
3471.497048  	95.436038 
3472.933926  	95.283704 
3474.370804  	95.179863 
3475.807682  	95.278739 
3477.244560  	95.352368 
3478.681437  	95.338795 
3480.118315  	95.408978 
3481.555193  	95.473756 
3482.992071  	95.460755 
3484.428949  	95.426657 
3485.865827  	95.438212 
3487.302705  	95.516659 
3488.739583  	95.471218 
3490.176461  	95.396264 
3491.613339  	95.532020 
3493.050217  	95.592560 
3494.487095  	95.505507 
3495.923972  	95.551149 
3497.360850  	95.612120 
3498.797728  	95.578468 
3500.234606  	95.536020 
3501.671484  	95.470898 
3503.108362  	95.446258 
3504.545240  	95.479370 
3505.982118  	95.546331 
3507.418996  	95.644974 
3508.855874  	95.646524 
3510.292752  	95.619071 
3511.729630  	95.671676 
3513.166507  	95.655557 
3514.603385  	95.667829 
3516.040263  	95.751807 
3517.477141  	95.675334 
3518.914019  	95.614746 
3520.350897  	95.753151 
3521.787775  	95.770773 
3523.224653  	95.658021 
3524.661531  	95.719508 
3526.098409  	95.776692 
3527.535287  	95.620554 
3528.972165  	95.532545 
3530.409043  	95.700633 
3531.845920  	95.932550 
3533.282798  	96.044576 
3534.719676  	95.968067 
3536.156554  	95.830431 
3537.593432  	95.880384 
3539.030310  	96.127812 
3540.467188  	96.346696 
3541.904066  	96.350193 
3543.340944  	96.185957 
3544.777822  	96.072396 
3546.214700  	96.075234 
3547.651578  	96.109799 
3549.088455  	96.057870 
3550.525333  	95.919479 
3551.962211  	95.858547 
3553.399089  	95.955447 
3554.835967  	96.119955 
3556.272845  	96.288610 
3557.709723  	96.363808 
3559.146601  	96.347895 
3560.583479  	96.333884 
3562.020357  	96.221103 
3563.457235  	96.074308 
3564.894113  	96.126015 
3566.330990  	96.279425 
3567.767868  	96.388864 
3569.204746  	96.519527 
3570.641624  	96.567674 
3572.078502  	96.495680 
3573.515380  	96.395776 
3574.952258  	96.388282 
3576.389136  	96.454883 
3577.826014  	96.439442 
3579.262892  	96.345897 
3580.699770  	96.354157 
3582.136648  	96.539120 
3583.573525  	96.725355 
3585.010403  	96.668581 
3586.447281  	96.447292 
3587.884159  	96.396199 
3589.321037  	96.585599 
3590.757915  	96.694840 
3592.194793  	96.746453 
3593.631671  	96.783763 
3595.068549  	96.745069 
3596.505427  	96.661475 
3597.942305  	96.570677 
3599.379183  	96.537786 
3600.816060  	96.702842 
3602.252938  	96.979706 
3603.689816  	96.998080 
3605.126694  	96.747501 
3606.563572  	96.575099 
3608.000450  	96.619870 
3609.437328  	96.677773 
3610.874206  	96.673493 
3612.311084  	96.692901 
3613.747962  	96.668329 
3615.184840  	96.620488 
3616.621718  	96.722826 
3618.058595  	96.906504 
3619.495473  	96.960257 
3620.932351  	97.002083 
3622.369229  	97.125138 
3623.806107  	97.098045 
3625.242985  	96.948569 
3626.679863  	96.908770 
3628.116741  	97.036082 
3629.553619  	97.200646 
3630.990497  	97.257335 
3632.427375  	97.111074 
3633.864253  	96.975159 
3635.301130  	96.960011 
3636.738008  	96.930356 
3638.174886  	96.825617 
3639.611764  	96.872392 
3641.048642  	96.995051 
3642.485520  	96.999942 
3643.922398  	97.091665 
3645.359276  	97.231726 
3646.796154  	97.143312 
3648.233032  	97.005575 
3649.669910  	97.221231 
3651.106788  	97.429568 
3652.543665  	97.365382 
3653.980543  	97.226446 
3655.417421  	97.226622 
3656.854299  	97.342428 
3658.291177  	97.424677 
3659.728055  	97.483252 
3661.164933  	97.495264 
3662.601811  	97.459754 
3664.038689  	97.564648 
3665.475567  	97.562809 
3666.912445  	97.284846 
3668.349323  	97.141959 
3669.786200  	97.276594 
3671.223078  	97.441282 
3672.659956  	97.433898 
3674.096834  	97.236751 
3675.533712  	96.975583 
3676.970590  	97.262272 
3678.407468  	97.584559 
3679.844346  	97.642225 
3681.281224  	97.656985 
3682.718102  	97.684422 
3684.154980  	97.741521 
3685.591858  	97.708483 
3687.028735  	97.650515 
3688.465613  	97.684005 
3689.902491  	97.777168 
3691.339369  	97.837228 
3692.776247  	97.764361 
3694.213125  	97.673667 
3695.650003  	97.681188 
3697.086881  	97.628052 
3698.523759  	97.561635 
3699.960637  	97.669275 
3701.397515  	97.724969 
3702.834393  	97.674568 
3704.271270  	97.793604 
3705.708148  	97.865630 
3707.145026  	97.781957 
3708.581904  	97.710698 
3710.018782  	97.670380 
3711.455660  	97.665224 
3712.892538  	97.806811 
3714.329416  	97.946665 
3715.766294  	98.004069 
3717.203172  	98.063384 
3718.640050  	98.081674 
3720.076928  	98.021450 
3721.513805  	97.919018 
3722.950683  	97.836377 
3724.387561  	97.919274 
3725.824439  	98.059730 
3727.261317  	97.978694 
3728.698195  	97.776547 
3730.135073  	97.736119 
3731.571951  	97.754758 
3733.008829  	97.739087 
3734.445707  	97.774390 
3735.882585  	97.638880 
3737.319463  	97.634304 
3738.756340  	98.099026 
3740.193218  	98.315106 
3741.630096  	98.050136 
3743.066974  	97.944520 
3744.503852  	98.177820 
3745.940730  	98.138920 
3747.377608  	98.085445 
3748.814486  	98.229084 
3750.251364  	98.307069 
3751.688242  	98.412244 
3753.125120  	98.553142 
3754.561998  	98.339426 
3755.998875  	98.126504 
3757.435753  	98.145619 
3758.872631  	98.276340 
3760.309509  	98.395224 
3761.746387  	98.277591 
3763.183265  	97.989794 
3764.620143  	97.869558 
3766.057021  	97.950967 
3767.493899  	98.074499 
3768.930777  	98.123813 
3770.367655  	98.150810 
3771.804533  	98.219773 
3773.241411  	98.300130 
3774.678288  	98.316332 
3776.115166  	98.160137 
3777.552044  	97.947880 
3778.988922  	97.915523 
3780.425800  	98.009053 
3781.862678  	98.104198 
3783.299556  	98.150115 
3784.736434  	98.032430 
3786.173312  	97.932663 
3787.610190  	98.080419 
3789.047068  	98.147296 
3790.483946  	98.078513 
3791.920823  	98.047946 
3793.357701  	97.980146 
3794.794579  	98.000297 
3796.231457  	98.113178 
3797.668335  	97.957553 
3799.105213  	97.742201 
3800.542091  	97.773997 
3801.978969  	97.949672 
3803.415847  	98.096819 
3804.852725  	98.061129 
3806.289603  	98.025335 
3807.726481  	97.992259 
3809.163358  	98.089036 
3810.600236  	98.278421 
3812.037114  	98.224493 
3813.473992  	97.881011 
3814.910870  	97.841768 
3816.347748  	97.951826 
3817.784626  	97.937059 
3819.221504  	97.930586 
3820.658382  	97.960106 
3822.095260  	97.904169 
3823.532138  	97.994560 
3824.969016  	98.110451 
3826.405893  	98.068525 
3827.842771  	97.903907 
3829.279649  	97.926221 
3830.716527  	97.946923 
3832.153405  	97.798696 
3833.590283  	97.831307 
3835.027161  	98.025048 
3836.464039  	97.998330 
3837.900917  	97.875131 
3839.337795  	97.878176 
3840.774673  	97.836675 
3842.211551  	97.807800 
3843.648428  	97.963560 
3845.085306  	98.138153 
3846.522184  	98.091111 
3847.959062  	97.953350 
3849.395940  	97.902235 
3850.832818  	97.914577 
3852.269696  	97.934564 
3853.706574  	98.072673 
3855.143452  	98.237731 
3856.580330  	98.100968 
3858.017208  	98.029440 
3859.454086  	98.106893 
3860.890963  	98.116954 
3862.327841  	97.983337 
3863.764719  	97.905654 
3865.201597  	97.919430 
3866.638475  	97.919096 
3868.075353  	98.025918 
3869.512231  	98.146002 
3870.949109  	97.953424 
3872.385987  	97.924437 
3873.822865  	98.195406 
3875.259743  	98.301134 
3876.696621  	98.094306 
3878.133498  	98.011695 
3879.570376  	98.028435 
3881.007254  	97.956704 
3882.444132  	97.928000 
3883.881010  	98.001834 
3885.317888  	98.055772 
3886.754766  	98.059842 
3888.191644  	98.105183 
3889.628522  	98.115860 
3891.065400  	98.105733 
3892.502278  	98.102262 
3893.939156  	98.100305 
3895.376033  	98.067270 
3896.812911  	98.025451 
3898.249789  	97.987775 
3899.686667  	98.033040 
3901.123545  	98.073727 
3902.560423  	98.118844 
3903.997301  	98.223606 
3905.434179  	98.208050 
3906.871057  	98.167537 
3908.307935  	98.234162 
3909.744813  	98.182860 
3911.181691  	98.053197 
3912.618568  	98.101831 
3914.055446  	98.210047 
3915.492324  	98.157484 
3916.929202  	98.112603 
3918.366080  	98.124073 
3919.802958  	98.070480 
3921.239836  	98.044316 
3922.676714  	98.142995 
3924.113592  	98.152708 
3925.550470  	97.967906 
3926.987348  	97.911363 
3928.424226  	98.008179 
3929.861103  	98.016016 
3931.297981  	97.960894 
3932.734859  	97.993217 
3934.171737  	98.109662 
3935.608615  	98.193326 
3937.045493  	98.197214 
3938.482371  	98.178418 
3939.919249  	98.167119 
3941.356127  	98.142746 
3942.793005  	98.069486 
3944.229883  	97.981654 
3945.666761  	98.007197 
3947.103638  	98.050975 
3948.540516  	98.016667 
3949.977394  	98.094008 
3951.414272  	98.234978 
3952.851150  	98.222937 
3954.288028  	98.205443 
3955.724906  	98.242704 
3957.161784  	98.170815 
3958.598662  	98.083934 
3960.035540  	98.060303 
3961.472418  	98.110862 
3962.909296  	98.160098 
3964.346173  	98.170532 
3965.783051  	98.189883 
3967.219929  	98.135480 
3968.656807  	98.009505 
3970.093685  	97.996756 
3971.530563  	98.033546 
3972.967441  	98.025635 
3974.404319  	98.060660 
3975.841197  	98.097957 
3977.278075  	98.128768 
3978.714953  	98.184468 
3980.151831  	98.141639 
3981.588708  	98.048840 
3983.025586  	98.075690 
3984.462464  	98.159917 
3985.899342  	98.174800 
3987.336220  	98.115706 
3988.773098  	98.067234 
3990.209976  	98.092850 
3991.646854  	98.120959 
3993.083732  	98.086832 
3994.520610  	98.026762 
3995.957488  	97.997062 
3997.394366  	98.065415 
3998.831244  	98.159823 
4000.268121  	98.116361 